timestamps,TP9,AF7,AF8,TP10,Right AUX
1734686140.055,-14.160,-31.738,-20.020,23.438,-254.883
1734686140.059,-2.930,-29.297,-23.438,25.879,-193.359
1734686140.063,28.809,-22.461,-30.273,20.996,-160.156
1734686140.067,77.637,-16.113,-26.855,37.109,-1.953
1734686140.071,29.297,-21.973,-26.855,14.648,79.102
1734686140.075,-35.645,-29.297,-33.203,-10.254,97.168
1734686140.079,-29.785,-36.621,-38.086,-12.207,-13.184
1734686140.082,1.953,-42.969,-43.945,-9.277,-149.902
1734686140.086,58.594,-44.922,-41.504,13.184,54.199
1734686140.090,22.461,-41.504,-41.992,3.418,483.887
1734686140.094,-41.992,-33.691,-46.875,-15.625,219.727
1734686140.098,-27.344,-35.156,-42.969,-12.695,-279.785
1734686140.099,3.906,-37.598,-34.668,-5.859,-260.254
1734686140.103,59.570,-26.855,-32.227,23.926,38.086
1734686140.107,36.133,-23.926,-32.715,20.508,124.512
1734686140.111,-39.062,-23.438,-33.691,-12.695,-143.555
1734686140.115,-43.945,-20.996,-39.551,-15.625,-177.734
1734686140.119,-18.555,-24.414,-35.645,-9.277,-66.895
1734686140.123,44.434,-28.809,-25.879,13.184,72.266
1734686140.126,41.504,-28.320,-29.297,3.418,121.582
1734686140.130,-35.645,-19.531,-35.156,-29.785,203.613
1734686140.134,-46.875,-17.578,-32.715,-14.648,604.004
1734686140.138,-12.695,-22.461,-31.250,-6.348,227.051
1734686140.142,40.527,-27.832,-38.574,4.883,-106.934
1734686140.145,36.621,-33.203,-43.457,9.766,121.582
1734686140.149,-35.645,-36.621,-33.691,-20.020,-140.137
1734686140.153,-46.875,-28.320,-28.320,-23.438,-311.035
1734686140.157,-20.996,-24.902,-28.320,-16.602,-229.492
1734686140.161,40.039,-21.484,-25.391,2.441,-40.039
1734686140.165,58.594,-14.160,-20.508,14.160,225.586
1734686140.169,-24.414,-19.043,-20.508,-10.254,88.379
1734686140.172,-41.016,-12.695,-19.043,-17.578,-150.879
1734686140.176,-15.625,-12.695,-10.254,-13.672,161.621
1734686140.180,25.391,-18.066,-8.789,5.371,250.977
1734686140.184,56.641,-8.789,-14.648,17.090,122.559
1734686140.188,-12.695,-14.648,-16.113,-5.371,12.695
1734686140.189,-38.574,-17.578,-12.695,-11.719,-52.734
1734686140.193,-14.648,-17.090,-17.578,-9.277,-251.953
1734686140.197,22.461,-18.066,-23.926,3.418,-228.027
1734686140.201,63.477,-10.254,-17.578,17.090,70.801
1734686140.205,-0.977,-14.160,-12.695,-6.836,62.500
1734686140.209,-45.410,-24.902,-16.602,-10.742,-39.062
1734686140.213,-21.484,-34.668,-16.602,-11.230,-106.934
1734686140.216,16.602,-30.273,-18.555,-12.695,70.312
1734686140.220,58.594,-19.531,-23.438,17.090,703.613
1734686140.224,3.418,-19.043,-23.926,-3.906,317.871
1734686140.228,-56.641,-24.414,-21.484,-34.180,-303.711
1734686140.232,-43.945,-27.832,-22.949,-24.902,-231.934
1734686140.235,-0.977,-30.273,-29.297,-3.418,-33.691
1734686140.239,50.293,-32.715,-31.738,6.348,53.711
1734686140.243,0.488,-28.320,-27.832,-17.090,14.648
1734686140.247,-54.688,-31.250,-28.320,-23.438,63.965
1734686140.251,-50.293,-31.738,-30.273,-22.949,-112.793
1734686140.255,-18.066,-25.391,-33.203,-25.391,-132.324
1734686140.259,50.781,-23.926,-33.203,9.277,243.652
1734686140.262,20.508,-21.484,-27.832,2.441,522.949
1734686140.266,-63.965,-30.273,-27.832,-37.109,55.664
1734686140.270,-62.500,-27.344,-28.809,-37.598,-414.551
1734686140.274,-30.762,-16.602,-32.227,-27.344,-294.434
1734686140.278,23.438,-19.531,-32.227,-7.812,104.492
1734686140.279,2.930,-28.320,-28.809,-17.090,90.332
1734686140.283,-68.359,-24.414,-28.809,-41.992,-179.688
1734686140.287,-65.430,-18.555,-35.156,-39.062,-108.398
1734686140.291,-38.574,-22.461,-32.715,-34.668,-112.793
1734686140.295,24.902,-25.879,-27.832,-8.789,-36.133
1734686140.299,21.973,-36.133,-35.156,-8.789,136.230
1734686140.303,-64.941,-38.086,-38.086,-41.504,85.449
1734686140.306,-63.477,-20.996,-32.227,-35.645,425.781
1734686140.310,-36.621,-10.254,-29.785,-29.785,156.738
1734686140.314,5.859,-14.160,-29.297,-12.207,-125.488
1734686140.318,10.254,-20.020,-31.250,-1.953,227.051
1734686140.322,-57.129,-24.902,-32.227,-30.273,46.875
1734686140.338,-68.848,-36.621,-35.156,-37.109,-308.594
1734686140.342,-50.293,-32.715,-36.133,-32.715,-330.078
1734686140.346,3.418,-25.879,-31.738,-22.461,-69.336
1734686140.350,19.043,-37.109,-28.320,-11.230,108.398
1734686140.354,-56.641,-34.180,-27.832,-32.227,-98.145
1734686140.358,-78.125,-22.461,-28.320,-38.086,-160.645
1734686140.362,-48.828,-21.973,-27.344,-28.809,330.078
1734686140.365,1.465,-19.043,-33.203,-13.672,339.844
1734686140.369,22.949,-15.625,-33.203,6.348,12.695
1734686140.373,-34.668,-17.578,-23.438,-20.020,-64.453
1734686140.377,-62.012,-23.438,-28.320,-43.457,-97.168
1734686140.381,-47.363,-23.926,-30.762,-37.109,-229.980
1734686140.368,-7.812,-22.461,-30.273,-24.414,-235.352
1734686140.372,31.250,-24.414,-33.691,-1.953,51.758
1734686140.376,-29.297,-26.367,-32.715,-21.484,41.016
1734686140.380,-78.125,-32.227,-32.227,-43.945,-171.875
1734686140.384,-57.129,-32.227,-33.203,-38.086,-275.879
1734686140.388,-19.043,-31.738,-37.598,-31.250,-51.270
1734686140.392,18.066,-31.250,-38.086,-17.090,465.820
1734686140.395,-26.855,-32.227,-34.668,-35.645,324.219
1734686140.399,-81.055,-32.715,-33.691,-50.781,-70.801
1734686140.403,-72.266,-27.344,-33.691,-41.504,-21.484
1734686140.407,-27.344,-29.297,-33.203,-35.645,385.254
1734686140.411,22.949,-29.297,-41.016,-20.020,199.707
1734686140.430,-19.043,-32.227,-39.551,-28.320,-101.562
1734686140.434,-73.242,-30.762,-24.902,-41.992,-150.391
1734686140.438,-64.941,-26.367,-25.391,-40.527,-267.090
1734686140.442,-28.320,-20.020,-28.809,-42.969,-334.473
1734686140.446,28.320,-16.113,-23.926,-15.625,-58.594
1734686140.450,3.418,-12.207,-17.578,-12.207,291.016
1734686140.454,-60.547,-7.324,-19.531,-37.598,72.754
1734686140.457,-57.129,-11.719,-20.508,-33.203,-288.086
1734686140.461,-32.227,-11.230,-22.461,-24.902,-267.578
1734686140.465,27.344,-6.348,-24.902,-0.977,438.477
1734686140.469,12.695,-9.277,-20.996,-5.371,380.371
1734686140.473,-65.430,-12.695,-25.391,-41.504,-240.723
1734686140.473,-61.035,-7.812,-28.320,-41.016,-229.980
1734686140.477,-30.273,-11.230,-27.832,-38.086,-62.988
1734686140.481,20.508,-13.184,-32.715,-26.367,5.859
1734686140.485,12.207,-13.184,-36.133,-21.973,20.508
1734686140.489,-54.688,-17.578,-31.738,-39.062,0.488
1734686140.493,-58.105,-13.672,-21.973,-37.109,73.242
1734686140.497,-29.785,-16.113,-17.090,-31.250,-112.793
1734686140.500,21.973,-19.531,-26.855,-4.395,-81.543
1734686140.504,23.438,-16.602,-31.250,0.488,315.918
1734686140.508,-51.270,-18.555,-28.809,-31.250,509.277
1734686140.512,-68.359,-16.602,-29.297,-38.574,-59.082
1734686140.516,-44.922,-14.160,-28.320,-41.504,-370.605
1734686140.520,1.465,-17.090,-31.738,-20.996,-21.973
1734686140.524,23.926,-19.043,-33.203,-7.324,82.031
1734686140.528,-37.109,-25.391,-29.297,-35.156,-149.414
1734686140.532,-64.453,-25.391,-32.715,-45.898,-263.672
1734686140.536,-48.828,-18.555,-35.645,-29.785,-164.551
1734686140.540,3.906,-17.090,-23.926,-7.812,23.926
1734686140.544,28.809,-21.484,-21.973,-5.371,246.094
1734686140.547,-44.434,-23.438,-27.344,-39.551,115.234
1734686140.551,-85.449,-31.738,-28.809,-49.316,188.965
1734686140.555,-64.453,-40.527,-31.250,-45.898,-21.484
1734686140.559,-13.184,-41.504,-34.180,-42.480,-309.082
1734686140.563,21.973,-29.785,-32.227,-19.043,-6.348
1734686140.563,-35.645,-30.273,-34.668,-36.133,-32.227
1734686140.567,-70.801,-36.621,-42.969,-54.199,-325.195
1734686140.571,-55.664,-23.438,-42.969,-48.828,-387.695
1734686140.575,-18.066,-27.832,-36.133,-33.203,-135.742
1734686140.579,29.785,-32.227,-32.227,-12.207,245.605
1734686140.583,-17.578,-25.879,-35.645,-33.691,131.348
1734686140.587,-70.801,-21.973,-32.227,-46.875,-147.949
1734686140.590,-65.918,-20.020,-25.879,-37.598,68.359
1734686140.594,-23.926,-30.762,-27.344,-25.879,546.875
1734686140.598,28.809,-30.273,-27.832,-5.859,327.148
1734686140.602,-8.789,-20.996,-34.668,-26.367,-38.086
1734686140.606,-63.477,-23.926,-36.133,-49.316,-147.949
1734686140.610,-59.570,-36.621,-33.691,-43.945,-256.348
1734686140.614,-38.086,-35.645,-32.715,-38.086,-296.875
1734686140.618,23.926,-28.809,-30.762,-16.602,-23.926
1734686140.622,9.766,-28.320,-30.762,-22.949,141.602
1734686140.626,-62.012,-25.391,-27.832,-50.781,-127.441
1734686140.630,-72.754,-28.320,-28.809,-52.246,-179.688
1734686140.634,-42.480,-40.527,-32.227,-44.922,-60.547
1734686140.637,18.066,-41.504,-31.738,-15.137,620.117
1734686140.641,10.254,-33.203,-35.645,-14.160,666.504
1734686140.645,-53.223,-33.691,-35.156,-45.898,-147.461
1734686140.649,-58.105,-16.113,-27.832,-43.457,-314.941
1734686140.653,-36.133,-8.301,-29.297,-31.250,-206.055
1734686140.654,19.531,-16.602,-38.086,-14.648,-87.402
1734686140.658,19.531,-22.461,-34.180,-8.789,21.973
1734686140.662,-51.758,-24.902,-32.227,-32.715,-108.398
1734686140.666,-69.336,-16.602,-38.086,-38.574,-221.191
1734686140.670,-41.016,-23.438,-31.738,-34.180,-203.613
1734686140.674,17.090,-27.344,-23.438,-10.742,-41.504
1734686140.678,10.254,-19.043,-24.902,-4.395,375.488
1734686140.681,-60.547,-17.578,-26.855,-29.297,678.711
1734686140.685,-75.684,-20.996,-27.344,-36.133,164.062
1734686140.689,-54.199,-24.902,-27.344,-35.645,-271.973
1734686140.693,1.953,-19.043,-28.320,-8.789,39.551
1734686140.697,27.344,-24.902,-24.902,6.836,227.539
1734686140.700,-32.715,-34.668,-19.043,-15.625,-89.355
1734686140.704,-62.500,-14.160,-24.414,-26.367,-225.098
1734686140.708,-44.922,-2.930,-31.250,-27.832,-132.324
1734686140.712,9.766,-19.043,-29.297,-16.113,-57.129
1734686140.716,44.434,-13.672,-19.531,4.883,23.926
1734686140.720,-25.391,-8.301,-12.695,-15.625,114.258
1734686140.724,-75.684,-11.230,-18.555,-31.250,397.461
1734686140.727,-62.988,-12.207,-28.320,-33.203,47.852
1734686140.731,-20.996,-16.602,-29.785,-30.762,-255.371
1734686140.735,23.438,-11.719,-26.367,-12.695,112.793
1734686140.739,-23.438,-7.812,-21.484,-27.832,229.492
1734686140.743,-63.477,-21.484,-23.438,-41.992,-89.355
1734686140.743,-52.246,-25.391,-27.832,-33.691,-307.129
1734686140.747,-6.348,-24.414,-31.738,-16.113,-142.578
1734686140.751,49.316,-20.020,-33.203,3.906,198.730
1734686140.755,-2.441,-9.277,-29.297,-15.625,49.805
1734686140.759,-59.570,-16.113,-24.414,-35.156,-248.047
1734686140.763,-48.340,-25.879,-25.391,-34.668,39.551
1734686140.767,-17.090,-21.973,-28.809,-28.809,321.777
1734686140.770,34.668,-10.254,-33.203,-2.930,167.480
1734686140.774,-8.789,-12.207,-33.203,-16.113,26.855
1734686140.778,-82.520,-16.602,-26.367,-42.969,17.090
1734686140.782,-77.637,-27.832,-21.484,-39.062,43.457
1734686140.786,-49.316,-30.273,-19.531,-35.156,-247.559
1734686140.804,15.625,-17.090,-20.996,-11.230,8.301
1734686140.808,5.371,-14.648,-18.555,-3.418,377.930
1734686140.812,-63.477,-22.949,-10.254,-23.926,-3.906
1734686140.816,-61.523,-23.438,-14.160,-32.715,-318.359
1734686140.820,-16.602,-13.184,-20.996,-14.648,-192.871
1734686140.824,37.598,-17.578,-20.020,9.277,182.617
1734686140.828,14.160,-22.461,-18.555,-2.441,300.781
1734686140.831,-58.105,-15.137,-18.555,-34.180,-101.074
1734686140.835,-57.617,-20.020,-22.949,-33.203,-255.859
1734686140.839,-30.762,-25.879,-26.367,-25.879,146.973
1734686140.843,26.367,-26.855,-23.438,-7.812,167.480
1734686140.847,27.344,-31.738,-20.508,2.930,35.645
1734686140.848,-41.016,-22.461,-20.508,-24.414,-94.238
1734686140.852,-56.152,-15.137,-24.414,-36.621,-217.773
1734686140.856,-34.180,-14.160,-25.879,-37.109,-208.008
1734686140.860,22.461,-20.020,-24.414,-13.184,13.184
1734686140.864,31.738,-23.926,-24.414,0.488,329.590
1734686140.868,-48.340,-26.367,-25.879,-31.250,299.316
1734686140.872,-70.801,-29.785,-28.809,-38.574,-39.551
1734686140.875,-39.062,-20.996,-26.855,-30.762,-147.461
1734686140.879,15.625,-20.508,-29.785,-15.137,89.355
1734686140.883,39.062,-16.113,-35.156,-7.812,636.719
1734686140.887,-38.086,-8.301,-35.645,-42.480,139.648
1734686140.891,-69.336,-18.066,-28.320,-51.270,-349.121
1734686140.895,-44.922,-29.785,-20.508,-33.203,-188.965
1734686140.899,4.395,-30.762,-21.484,-12.207,-166.992
1734686140.903,29.297,-28.320,-23.438,-4.395,0.977
1734686140.907,-42.480,-29.297,-25.391,-35.645,-5.371
1734686140.911,-75.684,-25.391,-24.902,-45.410,-127.930
1734686140.915,-51.270,-27.832,-25.391,-36.621,-149.414
1734686140.919,-12.695,-35.645,-22.949,-24.902,0.488
1734686140.922,34.668,-16.602,-23.926,-4.883,356.445
1734686140.926,-16.602,-10.742,-28.320,-21.973,586.426
1734686140.930,-64.941,-18.066,-26.367,-46.387,255.859
1734686140.934,-42.480,-14.160,-27.832,-52.246,-257.324
1734686140.938,-4.883,-16.113,-31.738,-35.645,-250.488
1734686140.938,40.527,-16.602,-32.227,-5.371,42.969
1734686140.942,-11.230,-11.230,-31.738,-25.879,17.578
1734686140.946,-65.430,-10.254,-31.250,-42.969,-193.848
1734686140.950,-51.270,-17.090,-34.180,-36.621,-233.398
1734686140.954,-15.137,-19.531,-34.668,-26.855,-148.438
1734686140.958,37.109,-18.066,-30.273,-7.324,236.328
1734686140.962,2.441,-17.090,-31.738,-20.508,227.051
1734686140.965,-72.266,-19.043,-35.645,-37.109,125.000
1734686140.969,-71.777,-22.949,-37.598,-35.645,598.633
1734686140.973,-38.086,-19.531,-38.086,-31.738,232.422
1734686140.977,20.996,-24.902,-40.039,-6.348,-140.625
1734686140.981,5.371,-38.086,-36.621,-8.789,198.242
1734686140.985,-68.848,-19.531,-30.273,-35.156,-15.625
1734686140.989,-69.336,-1.465,-26.855,-33.691,-380.859
1734686140.993,-30.762,-4.395,-26.367,-22.949,-330.566
1734686140.997,31.250,-11.719,-22.461,1.465,16.602
1734686141.001,13.184,-19.043,-26.367,-10.742,105.957
1734686141.005,-66.406,-19.531,-30.273,-42.480,-90.332
1734686141.009,-72.754,-17.578,-27.344,-46.387,-51.758
1734686141.012,-54.688,-20.508,-32.227,-38.086,229.492
1734686141.016,2.930,-24.414,-29.297,-14.160,220.703
1734686141.020,7.812,-36.133,-26.367,-12.207,-16.113
1734686141.024,-63.477,-29.297,-31.738,-42.969,27.344
1734686141.028,-79.102,-25.391,-28.320,-45.410,34.668
1734686141.028,-53.223,-26.855,-21.973,-31.738,-220.703
1734686141.032,2.930,-15.625,-21.484,-11.719,-140.137
1734686141.036,22.949,-19.043,-22.461,1.953,115.234
1734686141.040,-45.410,-26.855,-26.855,-24.902,-9.277
1734686141.076,25.879,-16.602,-16.602,0.488,-19.531
1734686141.080,-33.203,-18.066,-19.531,-21.973,27.832
1734686141.084,-72.266,-15.625,-20.020,-30.273,44.434
1734686141.088,-53.223,-11.230,-23.926,-27.832,-113.281
1734686141.092,-6.348,-21.973,-26.855,-18.066,-271.973
1734686141.096,32.227,-39.062,-22.461,-2.441,144.531
1734686141.100,-18.555,-42.480,-15.625,-17.578,625.000
1734686141.103,-66.895,-21.484,-17.578,-29.785,83.008
1734686141.107,-62.988,-17.090,-23.438,-27.344,-410.156
1734686141.111,-24.414,-20.996,-19.531,-15.137,-222.168
1734686141.115,31.738,-15.137,-19.043,-0.977,83.496
1734686141.119,-16.602,-16.602,-22.461,-20.996,25.391
1734686141.118,-68.359,-22.949,-22.461,-32.715,-246.094
1734686141.122,-38.086,-15.625,-20.508,-23.438,-283.691
1734686141.126,-6.348,-20.020,-22.461,-15.625,-174.805
1734686141.130,26.855,-26.367,-27.344,0.000,98.633
1734686141.134,0.977,-20.508,-26.855,-7.812,105.469
1734686141.138,-57.129,-20.996,-30.273,-28.809,108.398
1734686141.142,-59.082,-19.531,-31.250,-27.344,513.672
1734686141.145,-22.461,-27.344,-29.297,-23.926,191.895
1734686141.149,38.574,-16.602,-32.715,-8.301,-137.207
1734686141.153,20.020,4.395,-26.367,-15.625,147.949
1734686141.157,-52.246,-1.953,-20.508,-45.410,-41.016
1734686141.161,-62.988,-10.254,-24.902,-41.992,-358.398
1734686141.180,-35.645,-17.578,-31.250,-33.691,-327.637
1734686141.184,23.438,-19.043,-29.785,-7.812,-25.391
1734686141.188,20.508,-19.043,-26.855,-5.859,109.375
1734686141.192,-58.594,-31.738,-33.691,-44.434,-173.828
1734686141.196,-69.336,-26.855,-40.039,-45.410,-253.906
1734686141.200,-38.086,-15.137,-41.016,-40.039,17.090
1734686141.204,8.789,-15.137,-32.715,-25.879,173.340
1734686141.207,16.113,-8.301,-27.344,-22.461,119.629
1734686141.211,-50.293,-8.301,-27.344,-49.316,-94.238
1734686141.215,-72.754,-11.719,-27.344,-46.387,182.617
1734686141.219,-49.316,-20.508,-27.344,-38.086,104.492
1734686141.223,10.742,-24.902,-20.020,-12.207,-179.199
1734686141.223,23.438,-19.531,-23.926,-1.465,60.547
1734686141.227,-50.781,-21.484,-29.785,-29.785,-26.367
1734686141.231,-70.312,-30.273,-29.297,-41.016,-255.859
1734686141.235,-58.594,-27.344,-32.227,-39.551,-318.848
1734686141.239,-20.508,-22.461,-39.551,-28.809,-73.730
1734686141.243,14.648,-22.949,-35.156,-15.625,310.547
1734686141.247,-49.316,-27.344,-26.367,-33.691,214.844
1734686141.250,-87.891,-23.926,-27.832,-42.969,-14.648
1734686141.254,-56.152,-17.090,-29.297,-33.203,23.438
1734686141.258,-7.324,-20.508,-30.762,-18.066,535.156
1734686141.262,18.555,-21.973,-29.297,0.000,531.738
1734686141.266,-38.574,-22.461,-28.809,-24.902,-66.895
1734686141.270,-65.430,-27.344,-28.809,-46.875,-209.961
1734686141.274,-54.688,-22.949,-24.902,-37.598,-269.043
1734686141.278,-21.484,-15.137,-26.367,-20.996,-302.246
1734686141.282,30.273,-22.461,-34.668,-0.488,-34.668
1734686141.286,-17.578,-28.809,-32.227,-21.484,69.336
1734686141.290,-67.383,-20.508,-26.855,-37.109,2.930
1734686141.294,-60.547,-17.578,-29.785,-31.738,-101.562
1734686141.297,-25.391,-26.367,-31.250,-31.738,-137.695
1734686141.301,25.391,-34.180,-30.762,-7.324,428.223
1734686141.305,-14.648,-24.902,-32.227,-20.020,336.914
1734686141.309,-68.848,-15.137,-32.715,-39.062,-295.898
1734686141.313,-64.941,-22.461,-28.809,-34.668,-272.949
1734686141.313,-32.715,-19.043,-26.855,-31.250,-72.266
1734686141.317,29.785,-7.812,-28.809,-6.836,-10.254
1734686141.321,-0.977,-12.695,-27.344,-11.230,-21.973
1734686141.325,-71.289,-21.484,-26.855,-39.062,-167.480
1734686141.329,-60.059,-15.137,-22.949,-43.457,-232.422
1734686141.333,-26.855,-19.531,-19.043,-34.180,-153.809
1734686141.337,28.320,-30.762,-21.973,-14.160,133.789
1734686141.340,13.184,-17.090,-23.438,-24.414,400.391
1734686141.344,-55.664,-14.160,-19.043,-42.480,559.082
1734686141.348,-62.500,-28.809,-24.414,-41.504,38.086
1734686141.352,-31.738,-13.184,-27.832,-32.227,-327.148
1734686141.356,29.785,1.465,-32.715,-2.930,-0.488
1734686141.361,19.531,-5.371,-33.203,-6.836,127.441
1734686141.365,-50.293,-7.812,-19.531,-41.504,-27.832
1734686141.369,-60.059,-12.695,-13.672,-41.016,-132.324
1734686141.373,-35.156,-18.555,-16.113,-26.855,0.000
1734686141.377,24.902,-18.066,-24.414,-7.812,65.918
1734686141.381,34.180,-29.785,-26.855,-11.719,143.555
1734686141.385,-48.828,-36.133,-22.949,-43.457,163.574
1734686141.388,-65.430,-20.996,-25.391,-46.387,423.828
1734686141.392,-42.480,-17.090,-20.508,-36.133,163.574
1734686141.396,5.859,-10.742,-14.160,-18.555,-156.250
1734686141.400,23.438,-2.930,-12.695,-14.648,104.004
1734686141.404,-41.504,-7.324,-12.207,-35.156,20.020
1734686141.403,-65.430,-11.230,-19.531,-41.016,-198.242
1734686141.407,-48.340,-11.230,-28.320,-38.086,-251.953
1734686141.411,6.348,-12.207,-23.438,-20.020,-125.488
1734686141.415,41.016,-2.441,-19.531,-2.930,180.176
1734686141.419,-31.738,-5.371,-20.996,-26.367,202.637
1734686141.423,-75.684,-16.602,-28.320,-43.945,-54.199
1734686141.427,-58.594,-23.926,-27.344,-40.527,76.660
1734686141.430,-17.578,-31.738,-24.902,-22.949,739.746
1734686141.434,24.414,-34.180,-28.809,-4.883,533.203
1734686141.438,-31.250,-32.227,-25.391,-27.344,-118.164
1734686141.442,-79.590,-22.461,-21.484,-45.898,-196.289
1734686141.446,-65.430,-10.254,-19.531,-43.945,-219.238
1734686141.463,-22.949,-4.883,-17.090,-27.832,-363.281
1734686141.467,29.785,-6.836,-16.113,-5.371,-109.375
1734686141.471,-17.578,-10.254,-16.113,-24.902,153.809
1734686141.475,-74.707,-14.160,-15.137,-43.945,-146.484
1734686141.479,-62.988,-15.137,-18.555,-40.527,-428.223
1734686141.483,-28.809,-17.090,-28.320,-32.715,-222.656
1734686141.487,28.809,-18.066,-29.297,0.977,495.605
1734686141.490,-1.953,-20.508,-24.414,-11.230,474.609
1734686141.494,-61.035,-17.578,-23.438,-35.645,-247.070
1734686141.498,-59.082,-19.531,-20.996,-30.762,-333.984
1734686141.502,-34.180,-25.879,-23.926,-28.320,33.203
1734686141.506,31.738,-24.902,-26.367,-2.930,77.637
1734686141.493,14.160,-26.367,-22.949,-13.184,-26.367
1734686141.497,-51.758,-25.391,-22.949,-44.922,-185.059
1734686141.501,-51.270,-26.367,-27.344,-47.363,-282.715
1734686141.505,-31.250,-26.855,-29.297,-40.039,-298.340
1734686141.509,26.367,-28.809,-21.484,-8.789,-99.121
1734686141.513,13.672,-37.109,-15.137,-5.371,327.637
1734686141.517,-58.594,-24.902,-19.043,-31.738,287.598
1734686141.520,-78.125,-13.184,-22.949,-34.668,-34.180
1734686141.524,-55.664,-19.043,-23.438,-27.832,-167.480
1734686141.528,9.277,-24.902,-23.926,2.441,101.074
1734686141.532,10.742,-26.367,-22.949,3.418,293.945
1734686141.536,-67.383,-29.297,-25.391,-32.227,-159.668
1734686141.555,-74.707,-24.414,-29.297,-31.738,-394.531
1734686141.559,-42.969,-18.555,-24.414,-18.555,-23.438
1734686141.563,4.883,-23.438,-24.414,-3.418,208.496
1734686141.567,14.648,-25.879,-25.391,-8.301,38.086
1734686141.571,-61.523,-17.578,-26.367,-39.062,-111.328
1734686141.575,-83.008,-20.020,-26.367,-44.922,-104.980
1734686141.579,-65.918,-30.762,-33.691,-49.316,-125.488
1734686141.582,-18.066,-32.715,-35.645,-40.039,-113.770
1734686141.586,20.508,-26.855,-34.668,-22.461,90.820
1734686141.590,-49.805,-29.297,-33.691,-40.527,323.242
1734686141.594,-88.867,-27.832,-32.715,-53.711,-31.250
1734686141.598,-63.477,-22.461,-36.133,-50.293,-199.219
1734686141.598,-17.578,-23.926,-33.691,-35.156,8.301
1734686141.602,7.812,-30.273,-34.180,-20.996,218.262
1734686141.606,-55.176,-19.531,-36.621,-45.898,1.953
1734686141.610,-93.262,-14.160,-43.457,-65.918,-283.691
1734686141.614,-71.777,-20.996,-47.363,-63.477,-226.562
1734686141.618,-25.879,-30.762,-44.922,-44.922,62.012
1734686141.622,13.672,-44.922,-39.551,-19.531,298.828
1734686141.625,-41.016,-40.527,-38.086,-41.016,54.199
1734686141.629,-91.797,-29.297,-38.574,-46.387,-26.367
1734686141.633,-62.012,-36.133,-30.273,-19.043,388.672
1734686141.637,-12.207,-29.297,-24.414,-19.043,68.359
1734686141.641,32.227,-14.160,-15.625,-1.465,-131.348
1734686141.646,-13.672,-23.926,-11.719,-7.324,25.879
1734686141.650,-68.359,-25.879,-19.043,-31.738,-127.441
1734686141.654,-55.176,-20.020,-20.020,-30.273,-245.605
1734686141.658,-20.996,-20.996,-20.996,-18.066,-255.859
1734686141.662,34.668,-22.461,-19.043,1.953,217.773
1734686141.666,0.977,-19.531,-16.602,-14.160,279.297
1734686141.670,-67.383,-9.766,-19.531,-38.086,-83.984
1734686141.673,-56.641,-16.113,-26.367,-36.133,-132.812
1734686141.677,-27.344,-25.879,-24.902,-29.785,191.895
1734686141.681,25.391,-20.996,-19.531,-8.789,248.535
1734686141.685,13.184,-22.461,-21.973,-8.789,-31.250
1734686141.689,-54.688,-29.785,-20.996,-34.180,-192.871
1734686141.688,-56.641,-5.371,-21.973,-33.203,-225.586
1734686141.692,-25.391,-4.395,-24.414,-26.367,-236.328
1734686141.696,31.738,-28.809,-22.949,-3.906,-86.426
1734686141.700,21.484,-18.066,-21.973,-1.465,153.320
1734686141.704,-50.293,-5.859,-24.902,-28.809,86.914
1734686141.708,-62.012,-11.719,-26.855,-25.391,-60.547
1734686141.712,-38.086,-19.043,-22.461,-15.625,-113.281
1734686141.715,20.020,-20.996,-23.438,-4.883,222.168
1734686141.719,19.531,-26.367,-30.273,-1.465,855.957
1734686141.723,-61.035,-35.645,-29.785,-31.738,422.363
1734686141.727,-81.055,-36.621,-27.832,-43.945,-325.195
1734686141.731,-51.270,-40.527,-29.785,-36.133,-264.160
1734686141.735,8.301,-44.922,-26.367,-16.602,-104.980
1734686141.739,22.949,-19.043,-24.414,-3.418,-24.902
1734686141.743,-47.852,0.000,-28.320,-25.391,-87.402
1734686141.747,-72.266,-12.695,-32.715,-33.203,-156.738
1734686141.751,-49.316,-23.926,-32.227,-29.297,-233.398
1734686141.755,8.789,-30.273,-31.250,-13.184,19.043
1734686141.759,34.668,-28.809,-30.273,-0.488,296.875
1734686141.762,-39.062,-38.574,-29.297,-23.926,504.395
1734686141.766,-77.637,-39.551,-32.715,-38.086,309.570
1734686141.770,-52.246,-24.414,-27.832,-38.086,-260.742
1734686141.774,3.418,-25.391,-25.879,-16.602,-213.867
1734686141.778,32.715,-22.949,-26.855,4.395,100.098
1734686141.779,-31.250,-17.090,-25.879,-24.902,-38.574
1734686141.783,-66.406,-15.625,-21.973,-38.086,-341.309
1734686141.787,-58.105,-26.367,-22.461,-37.598,-360.840
1734686141.791,-24.902,-37.109,-31.250,-32.715,-239.258
1734686141.795,22.949,-28.320,-30.762,-8.789,36.133
1734686141.799,-25.391,-30.762,-33.691,-30.762,47.363
1734686141.803,-75.195,-33.203,-31.250,-43.457,132.324
1734686141.806,-54.199,-26.855,-28.809,-31.250,630.371
1734686141.810,-8.301,-27.344,-32.227,-21.484,329.590
1734686141.814,42.969,-17.090,-36.621,-2.930,51.758
1734686141.818,0.000,-7.812,-31.738,-14.160,168.457
1734686141.822,-60.547,-15.137,-27.344,-35.645,-86.914
1734686141.838,-55.664,-24.902,-30.762,-37.109,-323.730
1734686141.842,-21.484,-18.555,-27.344,-29.297,-294.434
1734686141.846,36.133,-14.648,-24.902,-5.371,44.434
1734686141.850,-4.395,-20.996,-23.926,-11.719,36.133
1734686141.854,-76.172,-25.391,-22.949,-39.062,-257.812
1734686141.858,-68.359,-22.461,-27.344,-39.551,-135.254
1734686141.862,-39.062,-27.832,-31.738,-34.668,335.938
1734686141.865,16.602,-45.898,-27.832,-10.254,295.410
1734686141.869,-7.324,-28.320,-28.809,-16.602,-27.832
1734686141.873,-73.730,-9.766,-30.762,-42.480,-159.668
1734686141.877,-70.801,-13.672,-27.344,-39.062,-190.430
1734686141.881,-41.992,-19.531,-30.762,-30.762,-197.266
1734686141.869,22.949,-20.508,-27.832,-6.348,-80.078
1734686141.873,20.508,-11.230,-25.879,-8.301,97.168
1734686141.877,-58.105,-14.648,-24.902,-36.621,72.266
1734686141.881,-68.848,-20.996,-19.531,-29.785,-194.824
1734686141.885,-41.992,-22.461,-17.578,-24.902,-290.527
1734686141.889,18.555,-20.020,-13.184,-9.766,166.992
1734686141.893,27.344,-12.695,-15.137,-7.812,582.520
1734686141.896,-42.969,-25.391,-20.996,-39.062,134.766
1734686141.900,-57.129,-35.156,-23.926,-48.340,-298.828
1734686141.904,-37.598,-19.531,-24.414,-41.992,-84.473
1734686141.908,10.254,-6.348,-35.645,-16.602,340.820
1734686141.912,25.391,-3.906,-34.180,-5.859,154.297
1734686141.930,-42.480,-7.324,-30.273,-38.574,-186.523
1734686141.934,-65.430,-12.207,-33.691,-38.086,-172.363
1734686141.938,-50.293,-25.391,-33.691,-36.621,-191.895
1734686141.942,2.441,-25.879,-30.762,-16.113,-195.801
1734686141.946,38.086,-17.090,-21.484,14.648,32.715
1734686141.950,-32.227,-20.508,-28.320,-19.043,372.070
1734686141.954,-75.195,-19.043,-31.738,-39.062,173.828
1734686141.957,-56.152,-17.578,-27.832,-39.551,-327.148
1734686141.961,-10.254,-18.555,-24.902,-27.344,-169.922
1734686141.965,27.344,-19.531,-22.461,-2.441,255.371
1734686141.969,-35.156,-24.902,-26.367,-21.484,30.273
1734686141.973,-80.078,-24.902,-30.762,-31.250,-205.078
1734686141.974,-55.176,-19.531,-29.785,-28.809,-162.598
1734686141.978,-14.648,-16.602,-29.785,-31.250,-91.309
1734686141.982,28.809,-15.137,-31.738,-4.395,118.164
1734686141.986,-20.996,-21.973,-36.133,-20.020,39.062
1734686141.990,-79.102,-26.855,-36.133,-51.758,-1.465
1734686141.994,-67.383,-29.297,-30.273,-48.340,158.203
1734686141.998,-25.879,-25.879,-28.809,-31.250,63.477
1734686142.001,34.668,-16.602,-21.973,-6.836,185.059
1734686142.005,-11.719,-20.020,-12.695,-20.996,356.445
1734686142.009,-71.289,-26.855,-16.113,-36.621,545.410
1734686142.013,-57.617,-19.531,-28.320,-36.621,156.250
1734686142.017,-25.391,-25.879,-29.297,-31.250,-179.199
1734686142.020,27.832,-33.203,-29.785,-6.836,83.008
1734686142.024,-7.812,-19.531,-36.133,-22.461,91.309
1734686142.028,-62.500,-8.301,-28.809,-39.551,-207.520
1734686142.032,-63.477,-9.766,-26.367,-33.691,-269.043
1734686142.036,-41.504,-11.719,-27.344,-33.203,-150.879
1734686142.040,19.043,-13.672,-20.996,-5.859,47.852
1734686142.044,-2.441,-12.695,-19.043,-10.254,205.566
1734686142.047,-75.195,-19.531,-27.344,-37.598,188.477
1734686142.051,-76.660,-32.715,-27.832,-35.645,376.953
1734686142.055,-48.828,-22.949,-27.832,-35.645,233.887
1734686142.059,11.230,-23.926,-33.691,-16.113,-60.547
1734686142.063,12.695,-35.156,-27.832,-8.789,88.379
1734686142.064,-67.871,-26.367,-22.949,-41.992,60.547
1734686142.068,-77.637,-9.766,-25.879,-47.363,-193.848
1734686142.072,-41.992,-12.207,-25.391,-35.156,-275.391
1734686142.076,8.789,-20.020,-24.902,-18.555,-103.027
1734686142.124,-35.156,-14.160,-25.879,-33.203,-190.430
1734686142.128,5.859,-6.348,-21.484,-22.461,-294.922
1734686142.132,37.598,-8.789,-15.137,-8.301,-31.250
1734686142.136,-30.762,-21.973,-21.484,-33.203,-81.543
1734686142.140,-63.965,-13.672,-26.367,-38.086,-254.883
1734686142.144,-41.504,-14.648,-28.320,-27.344,-163.086
1734686142.148,-3.906,-22.461,-31.738,-18.555,112.305
1734686142.151,32.715,-19.043,-30.762,3.906,606.445
1734686142.155,-19.531,-15.625,-27.344,-18.555,317.383
1734686142.159,-60.547,-21.973,-23.926,-39.062,-245.605
1734686142.163,-48.340,-27.344,-22.461,-29.785,-292.480
1734686142.167,-10.254,-11.230,-24.414,-12.695,-84.473
1734686142.159,35.645,-14.648,-24.902,8.301,174.805
1734686142.163,-15.625,-24.902,-25.879,-11.230,-20.996
1734686142.167,-63.965,-20.020,-37.109,-39.551,-166.504
1734686142.171,-52.246,-18.555,-31.738,-30.762,-127.930
1734686142.175,-25.391,-18.555,-25.879,-21.973,-154.297
1734686142.179,35.645,-12.695,-23.926,-5.371,48.828
1734686142.183,0.000,-8.789,-24.414,-15.625,266.602
1734686142.186,-69.336,-19.043,-32.227,-36.621,263.672
1734686142.190,-62.012,-21.973,-30.762,-36.133,-103.516
1734686142.194,-27.344,-22.949,-31.738,-36.133,-364.258
1734686142.198,31.250,-34.180,-31.738,-10.742,126.953
1734686142.202,7.324,-35.156,-34.668,-18.555,616.211
1734686142.223,-63.477,-23.926,-39.062,-52.246,-30.762
1734686142.227,-55.664,-21.484,-36.133,-45.410,-322.266
1734686142.231,-27.344,-23.438,-35.156,-27.832,-46.387
1734686142.235,13.184,-24.414,-31.250,-3.906,53.711
1734686142.239,-2.441,-20.996,-19.043,-14.160,7.812
1734686142.243,-64.453,-13.672,-18.555,-42.969,-34.180
1734686142.247,-61.523,-17.578,-26.367,-36.133,316.895
1734686142.250,-38.086,-37.598,-30.273,-32.715,318.848
1734686142.254,22.461,-35.156,-30.273,-14.648,-48.340
1734686142.258,27.344,-18.555,-31.738,-13.184,2.930
1734686142.262,-59.082,-19.043,-29.785,-49.316,-104.492
1734686142.266,-78.613,-32.715,-31.250,-61.035,-303.223
1734686142.244,-55.664,-30.762,-31.738,-55.176,-356.445
1734686142.248,8.789,-26.855,-25.879,-20.508,-135.254
1734686142.252,26.855,-28.809,-32.715,-13.672,138.184
1734686142.256,-52.734,-36.133,-41.992,-47.852,-68.848
1734686142.260,-71.289,-40.527,-31.738,-51.270,-241.699
1734686142.264,-41.016,-24.902,-26.855,-34.668,-55.664
1734686142.268,6.836,-23.926,-28.809,-9.277,171.875
1734686142.271,15.137,-32.227,-23.926,5.371,329.102
1734686142.275,-62.988,-29.785,-21.973,-19.531,78.125
1734686142.279,-91.309,-32.715,-25.879,-33.691,-76.660
1734686142.283,-64.453,-23.438,-23.438,-25.391,362.793
1734686142.287,-14.648,-14.160,-19.043,-12.207,281.250
1734686142.307,14.648,-27.344,-24.414,-8.789,22.461
1734686142.311,-49.805,-29.297,-30.273,-30.762,23.926
1734686142.315,-91.797,-20.020,-28.809,-41.504,-222.168
1734686142.319,-67.871,-23.926,-28.809,-29.785,-354.004
1734686142.323,-15.625,-26.367,-28.809,-13.672,-129.395
1734686142.327,19.531,-19.531,-25.391,-1.465,353.027
1734686142.331,-41.016,-31.250,-36.621,-25.879,232.910
1734686142.334,-83.496,-39.551,-40.527,-36.133,-114.746
1734686142.338,-68.359,-29.785,-35.156,-40.039,-236.816
1734686142.342,-28.320,-23.926,-37.109,-33.203,172.852
1734686142.346,24.902,-25.391,-38.574,-9.766,400.879
1734686142.350,-21.484,-34.668,-37.598,-28.809,17.090
1734686142.349,-69.336,-33.691,-41.016,-38.574,-192.871
1734686142.353,-52.734,-32.715,-37.109,-41.016,-238.281
1734686142.357,-16.113,-20.996,-27.832,-28.809,-224.609
1734686142.361,34.180,-22.461,-31.250,3.418,1.953
1734686142.365,-0.977,-27.832,-32.227,-15.137,95.215
1734686142.369,-57.129,-18.555,-28.320,-35.645,58.105
1734686142.373,-50.293,-10.254,-29.785,-23.926,8.301
1734686142.376,-22.461,-14.648,-31.738,-19.531,-80.566
1734686142.380,36.621,-29.785,-32.715,-6.348,205.566
1734686142.384,5.859,-19.043,-33.203,-15.625,803.711
1734686142.388,-66.406,-13.184,-25.391,-38.086,477.051
1734686142.392,-60.059,-24.902,-24.902,-37.598,-270.996
1734686142.395,-35.156,-27.344,-24.414,-32.715,-235.840
1734686142.399,34.180,-20.996,-18.555,-9.277,-36.133
1734686142.403,30.273,-16.113,-16.602,-4.883,-11.719
1734686142.407,-49.805,-15.625,-19.531,-30.273,-170.410
1734686142.411,-49.316,-13.672,-20.996,-27.832,-124.512
1734686142.415,-29.297,-10.254,-28.809,-24.414,-68.359
1734686142.419,18.066,-14.648,-30.273,-4.395,92.773
1734686142.422,23.438,-15.625,-23.438,3.418,227.539
1734686142.426,-41.016,-15.137,-24.414,-24.902,303.223
1734686142.430,-49.316,-18.066,-21.973,-32.227,15.137
1734686142.434,-28.320,-20.996,-21.973,-29.785,-302.734
1734686142.438,28.320,-17.578,-25.391,-7.812,9.766
1734686142.439,41.992,-18.555,-23.438,-0.488,236.816
1734686142.443,-35.156,-22.949,-24.414,-32.227,-85.938
1734686142.447,-59.082,-35.645,-25.391,-46.387,-304.199
1734686142.451,-41.016,-36.621,-31.250,-48.340,-286.621
1734686142.455,2.930,-17.090,-29.785,-27.832,-34.180
1734686142.459,24.414,-17.578,-24.414,-13.672,226.074
1734686142.463,-38.086,-26.855,-26.367,-40.039,-50.293
1734686142.466,-58.105,-22.949,-22.949,-35.645,-71.289
1734686142.470,-33.203,-25.879,-20.996,-18.555,419.434
1734686142.474,10.742,-23.926,-23.926,-11.230,181.641
1734686142.478,36.133,-22.949,-24.414,0.000,-22.461
1734686142.482,-33.203,-29.297,-25.391,-25.391,31.250
1734686142.487,-71.289,-26.367,-28.320,-38.086,-210.938
1734686142.491,-51.270,-24.902,-32.227,-30.762,-356.445
1734686142.495,-16.113,-36.621,-28.320,-13.672,-86.914
1734686142.499,25.879,-44.434,-28.809,3.906,380.859
1734686142.503,-20.996,-25.879,-31.738,-24.902,119.141
1734686142.507,-69.824,-8.301,-30.273,-44.434,-187.988
1734686142.511,-55.176,-7.812,-28.320,-40.527,-189.453
1734686142.514,-9.277,-11.230,-24.902,-20.996,230.469
1734686142.518,29.297,-15.625,-28.320,2.441,549.316
1734686142.522,-19.531,-21.973,-24.902,-21.484,1.465
1734686142.526,-72.266,-26.367,-23.438,-45.410,-281.738
1734686142.530,-65.430,-25.879,-30.273,-42.480,-240.723
1734686142.544,-32.715,-29.297,-26.367,-37.109,-271.484
1734686142.548,21.484,-31.250,-23.438,-10.254,-56.152
1734686142.552,-7.812,-28.809,-25.879,-14.648,40.039
1734686142.556,-63.477,-26.855,-24.902,-42.480,-186.035
1734686142.560,-59.570,-19.043,-29.297,-37.598,-294.922
1734686142.564,-36.133,-25.391,-28.320,-26.855,-230.957
1734686142.568,17.090,-28.320,-21.484,-5.371,250.488
1734686142.571,5.371,-28.320,-19.531,-8.301,837.891
1734686142.575,-62.500,-23.926,-18.066,-32.715,354.980
1734686142.579,-73.242,-17.090,-18.555,-29.297,-301.758
1734686142.583,-37.109,-27.344,-17.090,-17.090,-198.730
1734686142.587,24.902,-33.203,-18.066,-3.906,115.723
1734686142.591,6.348,-23.438,-22.461,-12.207,15.137
1734686142.595,-68.359,-24.902,-24.902,-38.574,-193.359
1734686142.599,-67.383,-38.086,-28.320,-37.109,-187.012
1734686142.603,-35.645,-30.273,-26.367,-24.902,-259.277
1734686142.607,23.926,-13.672,-21.973,-4.395,-207.520
1734686142.611,23.438,-11.230,-21.973,-3.906,183.594
1734686142.615,-53.223,-20.508,-27.344,-37.109,395.996
1734686142.618,-66.406,-30.273,-31.738,-40.527,52.246
1734686142.622,-49.316,-37.109,-33.691,-37.598,-275.879
1734686142.626,-1.953,-37.598,-26.367,-23.926,-133.789
1734686142.630,24.414,-32.227,-20.508,-11.719,532.227
1734686142.634,-41.992,-31.738,-27.344,-38.086,391.602
1734686142.618,-75.195,-36.133,-30.273,-43.457,-274.414
1734686142.622,-52.734,-29.785,-29.785,-32.227,-319.336
1734686142.626,1.953,-21.484,-30.273,-10.742,-102.539
1734686142.630,28.320,-21.484,-25.391,5.371,72.754
1734686142.634,-34.180,-19.043,-24.414,-22.461,-114.746
1734686142.638,-68.848,-21.973,-24.414,-31.738,-88.867
1734686142.642,-51.270,-24.902,-18.555,-15.137,55.664
1734686142.645,0.488,-28.809,-19.531,-9.766,-24.902
1734686142.649,38.086,-28.320,-24.902,2.441,89.355
1734686142.653,-22.949,-23.926,-24.902,-15.137,194.336
1734686142.657,-70.312,-28.320,-30.273,-36.621,103.027
1734686142.661,-51.270,-26.367,-34.668,-31.250,-229.492
1734686142.679,-11.719,-31.250,-24.902,-17.578,-245.605
1734686142.683,29.785,-37.598,-18.066,-4.883,272.461
1734686142.687,-18.066,-9.277,-18.555,-28.320,312.988
1734686142.691,-75.684,-3.418,-20.508,-49.316,-264.160
1734686142.695,-62.500,-20.020,-20.020,-41.992,-369.629
1734686142.699,-22.461,-20.020,-18.555,-29.297,6.836
1734686142.703,17.090,-22.949,-24.902,-8.789,208.008
1734686142.706,-22.949,-23.926,-20.508,-14.160,-47.852
1734686142.710,-76.172,-20.020,-18.066,-35.156,-242.188
1734686142.714,-64.453,-19.043,-20.020,-35.645,80.566
1734686142.718,-25.391,-14.648,-18.066,-37.109,-31.250
1734686142.722,29.785,-14.160,-20.508,-17.090,-142.090
1734686142.724,-3.906,-23.926,-21.484,-22.949,174.805
1734686142.728,-64.453,-43.457,-18.555,-45.410,89.844
1734686142.732,-58.105,-43.945,-21.484,-43.945,-228.027
1734686142.736,-28.320,-25.391,-29.297,-38.086,-273.438
1734686142.740,27.344,-20.020,-20.996,-7.812,54.688
1734686142.744,10.742,-8.789,-13.184,-8.789,270.020
1734686142.748,-59.082,-2.441,-12.207,-37.598,42.480
1734686142.751,-63.477,-10.254,-14.648,-40.039,-80.078
1734686142.755,-35.156,-16.602,-18.555,-31.738,-3.906
1734686142.759,24.414,-23.438,-15.137,-3.418,520.996
1734686142.763,20.020,-25.391,-21.973,-2.441,307.617
1734686142.767,-57.129,-20.508,-23.438,-31.738,-284.668
1734686142.770,-71.777,-33.203,-20.508,-28.320,-230.957
1734686142.774,-37.109,-38.574,-26.367,-19.531,-226.562
1734686142.778,16.602,-22.461,-29.297,-12.207,-120.605
1734686142.782,14.648,-16.602,-23.926,-16.113,69.336
1734686142.786,-58.105,-22.461,-19.531,-40.039,10.742
1734686142.790,-73.242,-13.672,-24.414,-39.551,-89.844
1734686142.794,-44.922,-17.578,-21.973,-36.621,-169.434
1734686142.797,12.695,-27.832,-19.531,-10.254,-118.164
1734686142.801,30.273,-18.555,-25.879,0.977,450.195
1734686142.805,-38.086,-14.648,-21.973,-28.809,429.688
1734686142.809,-68.359,-17.578,-22.461,-41.992,-236.328
1734686142.813,-47.852,-21.484,-24.902,-34.668,-339.355
1734686142.815,4.883,-22.461,-27.344,-17.090,-166.992
1734686142.819,41.504,-18.555,-32.227,-9.277,-12.207
1734686142.823,-26.855,-30.762,-39.551,-36.621,-104.980
1734686142.827,-77.637,-37.109,-41.504,-47.852,-222.656
1734686142.831,-72.266,-21.973,-34.668,-46.387,-203.613
1734686142.835,-22.461,-20.508,-31.738,-35.156,-78.613
1734686142.839,28.320,-19.531,-32.227,-7.812,140.625
1734686142.842,-31.250,-24.414,-33.203,-33.203,200.684
1734686142.846,-71.289,-40.039,-41.016,-50.293,609.375
1734686142.850,-67.871,-31.250,-43.457,-45.410,319.336
1734686142.854,-36.621,-25.391,-37.109,-41.504,-240.234
1734686142.858,20.020,-30.273,-34.668,-21.973,106.934
1734686142.860,-25.879,-27.344,-31.738,-33.691,21.973
1734686142.864,-81.543,-20.996,-32.715,-51.758,-363.281
1734686142.868,-74.707,-22.949,-33.203,-53.223,-376.953
1734686142.872,-30.273,-26.367,-26.855,-41.016,-186.523
1734686142.876,41.016,-26.367,-23.926,-9.766,35.645
1734686142.880,3.418,-23.926,-28.320,-22.461,161.621
1734686142.884,-73.730,-19.043,-32.715,-52.734,10.254
1734686142.887,-61.523,-20.508,-30.273,-36.133,254.883
1734686142.891,-20.508,-24.902,-24.902,-23.926,333.008
1734686142.895,29.785,-28.809,-28.320,-11.719,-23.926
1734686142.899,-1.465,-24.414,-30.273,-19.531,-62.012
1734686142.903,-63.477,-19.531,-35.645,-46.387,-173.828
1734686142.903,-54.688,-24.902,-28.320,-38.086,-334.961
1734686142.907,-33.203,-24.414,-19.531,-23.926,-341.309
1734686142.911,21.484,-25.879,-24.414,-12.207,-78.613
1734686142.915,12.695,-43.945,-27.344,-20.996,69.824
1734686142.919,-56.152,-38.574,-27.832,-43.457,-104.492
1734686142.923,-62.500,-23.438,-27.832,-43.945,-158.691
1734686142.927,-39.062,-17.090,-26.367,-35.645,59.082
1734686142.930,21.973,-14.160,-24.902,-19.043,621.582
1734686142.934,14.160,-23.438,-23.926,-24.902,352.051
1734686142.938,-60.547,-20.996,-22.949,-48.828,-233.887
1734686142.942,-67.871,-23.926,-28.320,-47.852,-82.520
1734686142.946,-41.992,-22.949,-27.832,-36.621,35.156
1734686142.952,18.555,-20.508,-22.461,-17.578,-169.922
1734686142.956,22.949,-29.297,-21.484,-9.277,-31.738
1734686142.960,-55.664,-20.996,-27.344,-34.180,-35.645
1734686142.964,-63.965,-15.137,-22.461,-30.762,-272.461
1734686142.968,-42.480,-19.043,-13.184,-29.297,-328.125
1734686142.972,10.254,-21.484,-18.555,-20.020,-0.488
1734686142.976,36.133,-27.832,-25.391,-8.301,642.578
1734686142.979,-35.156,-15.625,-20.508,-31.738,322.754
1734686142.983,-58.594,-10.254,-19.043,-36.133,-304.199
1734686142.987,-43.457,-26.367,-26.855,-34.668,-301.758
1734686142.991,4.395,-21.973,-23.438,-20.508,-119.141
1734686142.995,38.086,-21.973,-21.973,-2.441,24.902
1734686142.994,-34.180,-28.809,-32.715,-28.809,-92.285
1734686142.998,-71.777,-16.113,-30.762,-39.062,-137.207
1734686143.002,-57.129,-20.508,-31.250,-39.062,-79.590
1734686143.006,-17.578,-33.691,-36.133,-34.180,-157.715
1734686143.010,11.719,-41.016,-33.203,-15.137,-8.301
1734686143.014,-35.156,-34.668,-33.691,-32.227,243.652
1734686143.018,-68.848,-22.461,-34.180,-50.293,541.992
1734686143.021,-58.594,-32.715,-31.738,-44.434,219.727
1734686143.025,-13.184,-40.039,-35.645,-37.598,-164.062
1734686143.029,40.527,-22.949,-38.574,-16.113,180.664
1734686143.033,-10.254,-16.602,-35.645,-33.691,308.105
1734686143.037,-70.801,-26.367,-31.738,-61.035,-269.531
1734686143.054,-64.941,-28.809,-31.250,-49.316,-415.039
1734686143.058,-30.762,-26.367,-29.297,-29.785,-217.285
1734686143.062,26.855,-26.855,-26.855,0.977,44.434
1734686143.066,-7.812,-21.973,-23.926,-9.766,120.605
1734686143.070,-65.430,-19.531,-27.344,-32.715,-141.113
1734686143.074,-63.965,-22.949,-29.297,-32.227,266.602
1734686143.078,-31.250,-23.926,-32.715,-24.414,361.816
1734686143.081,26.855,-13.184,-27.832,-4.395,15.137
1734686143.085,-1.465,-26.367,-21.484,-24.414,45.410
1734686143.089,-65.918,-43.945,-20.996,-43.945,43.457
1734686143.093,-71.777,-24.902,-22.461,-40.527,-221.680
1734686143.097,-46.387,-18.555,-22.949,-39.551,-335.449
1734686143.099,21.484,-26.367,-20.996,-11.719,-51.758
1734686143.103,2.441,-27.832,-25.391,-9.277,126.465
1734686143.107,-64.453,-24.902,-28.320,-35.645,-135.742
1734686143.111,-63.965,-20.508,-24.414,-35.156,-319.824
1734686143.145,-36.621,-18.555,-23.438,-35.156,-76.660
1734686143.149,-62.012,-18.066,-26.367,-40.527,-245.605
1734686143.153,-48.828,-16.113,-26.367,-37.598,-352.051
1734686143.157,9.277,-14.648,-23.438,-15.137,-197.266
1734686143.161,38.574,-20.996,-22.949,6.348,129.395
1734686143.165,-32.227,-25.879,-26.367,-28.320,108.398
1734686143.169,-69.336,-29.297,-31.250,-44.922,-100.098
1734686143.172,-45.410,-31.738,-31.738,-34.668,-181.152
1734686143.176,-2.930,-24.902,-25.879,-14.648,368.164
1734686143.180,23.438,-18.066,-25.879,0.488,645.020
1734686143.184,-26.367,-21.973,-20.508,-21.973,29.785
1734686143.188,-68.848,-20.508,-17.578,-32.227,-231.934
1734686143.188,-56.152,-17.090,-21.484,-31.738,-192.383
1734686143.192,-7.324,-16.113,-23.438,-22.461,-163.086
1734686143.196,30.273,-20.996,-22.461,-5.859,27.832
1734686143.200,-22.461,-20.508,-23.438,-32.715,3.906
1734686143.204,-64.941,-20.508,-26.855,-51.758,-142.090
1734686143.208,-55.176,-21.484,-24.902,-42.480,-134.277
1734686143.212,-20.020,-25.391,-20.020,-34.180,-128.418
1734686143.215,33.203,-23.438,-21.484,-7.324,274.414
1734686143.219,-7.812,-26.367,-23.926,-12.695,740.234
1734686143.223,-65.430,-34.180,-20.020,-38.574,143.555
1734686143.227,-56.152,-17.090,-18.066,-36.621,-298.828
1734686143.231,-23.438,-11.719,-17.090,-24.414,-43.945
1734686143.235,27.344,-12.207,-19.043,-7.812,83.008
1734686143.239,-7.812,-15.625,-24.902,-16.602,-29.297
1734686143.243,-62.500,-17.578,-22.949,-33.691,-197.266
1734686143.247,-56.641,-15.625,-20.508,-30.762,-32.227
1734686143.251,-27.832,-18.555,-25.879,-31.738,-40.039
1734686143.255,31.250,-20.508,-27.832,-15.625,20.508
1734686143.259,5.859,-24.902,-26.367,-17.578,173.340
1734686143.262,-64.941,-22.949,-27.832,-33.203,249.512
1734686143.266,-63.477,-23.438,-27.344,-34.668,40.527
1734686143.270,-34.180,-27.832,-25.879,-31.250,-282.227
1734686143.274,17.578,-30.273,-26.855,-6.348,-54.199
1734686143.278,12.695,-24.902,-19.531,-5.371,93.262
1734686143.280,-53.223,-15.137,-18.555,-33.691,-138.672
1734686143.284,-62.012,-15.137,-26.367,-33.203,-185.059
1734686143.288,-31.738,-20.508,-27.832,-25.391,-155.273
1734686143.292,19.531,-22.949,-30.273,-7.324,64.941
1734686143.296,16.113,-19.043,-30.273,-9.766,123.047
1734686143.300,-55.176,-15.137,-33.691,-37.109,-68.848
1734686143.304,-75.195,-23.926,-32.227,-41.016,10.742
1734686143.307,-51.270,-36.133,-29.785,-37.109,478.516
1734686143.311,6.836,-22.949,-30.273,-18.555,293.945
1734686143.315,20.508,-13.184,-29.785,-10.254,-36.621
1734686143.319,-48.340,-27.832,-27.344,-28.320,-36.621
1734686143.323,-45.898,-26.855,-24.414,-14.648,-138.184
1734686143.325,-13.672,-9.277,-27.344,-9.277,-315.430
1734686143.329,9.277,-1.465,-30.762,-20.020,-186.035
1734686143.333,20.020,2.441,-30.273,-17.090,151.367
1734686143.337,-41.016,-3.418,-33.691,-31.250,105.469
1734686143.341,-62.012,-7.812,-34.180,-33.691,-182.129
1734686143.345,-40.527,-8.301,-33.203,-30.762,-270.508
1734686143.349,-1.953,-5.371,-39.551,-20.020,381.836
1734686143.352,28.809,-2.441,-43.945,-4.883,708.008
1734686143.356,-35.156,-6.348,-46.387,-42.480,-40.039
1734686143.360,-74.707,-6.836,-46.875,-61.035,-355.957
1734686143.364,-51.758,-0.977,-43.945,-45.898,-244.141
1734686143.368,-3.906,-3.906,-42.480,-32.715,-237.305
1734686143.368,44.922,-16.602,-39.551,-13.184,-54.199
1734686143.372,-6.836,-13.672,-32.227,-24.414,-26.855
1734686143.376,-49.316,0.488,-30.762,-29.297,-193.848
1734686143.380,-37.109,1.465,-37.109,-28.320,-274.414
1734686143.384,-5.371,4.395,-37.109,-21.973,-279.785
1734686143.388,38.574,-3.418,-32.715,2.930,250.000
1734686143.392,-16.113,-15.625,-33.691,-15.625,729.980
1734686143.395,-71.289,-22.949,-36.621,-44.922,123.047
1734686143.399,-54.688,-26.855,-35.645,-41.504,-213.379
1734686143.403,-20.996,-18.066,-30.762,-30.273,28.320
1734686143.407,37.109,-18.555,-31.738,-3.418,528.320
1734686143.411,4.883,-35.156,-30.273,-19.043,194.336
1734686143.429,-64.453,-34.668,-24.902,-44.922,-281.738
1734686143.433,-45.410,-19.043,-25.879,-37.109,-224.121
1734686143.437,-1.465,-10.254,-24.414,-32.227,-256.836
1734686143.441,40.527,-9.277,-24.414,-9.277,-98.633
1734686143.445,10.742,-11.719,-23.926,-15.137,94.727
1734686143.449,-57.129,-17.090,-27.344,-38.574,127.930
1734686143.453,-60.547,-16.602,-27.344,-36.133,-35.645
1734686143.456,-35.156,-21.973,-29.785,-38.574,-221.191
1734686143.460,25.391,-25.879,-32.715,-17.090,43.945
1734686143.464,23.926,-27.344,-28.320,-12.207,586.914
1734686143.468,-50.293,-25.391,-27.344,-37.109,298.340
1734686143.472,-57.129,-31.250,-28.809,-36.133,-268.555
1734686143.474,-36.621,-32.715,-31.738,-33.691,-281.250
1734686143.478,18.066,-22.949,-36.621,-20.996,-44.922
1734686143.482,27.344,-10.742,-35.156,-13.184,80.078
1734686143.486,-56.641,-5.859,-30.273,-35.645,-194.824
1734686143.490,-69.336,-11.719,-33.203,-45.898,-237.793
1734686143.494,-34.180,-9.766,-29.297,-33.691,-62.500
1734686143.498,23.926,-10.254,-21.484,-5.859,16.602
1734686143.501,32.227,-24.414,-24.902,-2.930,177.734
1734686143.505,-49.316,-31.250,-25.391,-32.227,200.684
1734686143.509,-68.848,-30.273,-27.344,-36.621,379.883
1734686143.513,-41.992,-18.555,-34.180,-29.297,12.695
1734686143.517,15.625,-15.137,-29.297,3.418,-195.312
1734686143.520,42.969,-29.297,-24.902,15.625,188.477
1734686143.524,-36.133,-26.367,-26.367,-25.879,38.574
1734686143.528,-70.801,-19.043,-30.762,-38.574,-311.523
1734686143.532,-36.133,-23.926,-28.320,-17.578,-300.781
1734686143.536,12.695,-21.973,-26.855,2.930,-70.312
1734686143.540,41.992,-16.602,-19.043,6.836,232.422
1734686143.544,-14.160,-20.020,-15.625,-20.020,135.254
1734686143.547,-56.152,-24.902,-29.785,-34.180,-189.453
1734686143.551,-41.992,-20.996,-34.180,-22.461,100.586
1734686143.555,2.441,-23.438,-27.344,-9.277,124.023
1734686143.559,46.875,-40.039,-24.414,-1.465,-41.504
1734686143.563,-3.906,-27.344,-24.414,-20.508,-36.621
1734686143.564,-52.734,-4.883,-21.484,-36.621,-141.602
1734686143.568,-52.246,-9.277,-23.926,-30.273,-154.297
1734686143.572,-19.043,-17.090,-24.902,-21.484,-211.426
1734686143.576,36.133,-23.438,-16.113,3.906,38.574
1734686143.580,-6.348,-24.414,-20.020,-7.324,190.918
1734686143.584,-69.824,-24.902,-25.879,-40.039,-63.965
1734686143.588,-66.406,-20.020,-22.461,-41.504,-225.586
1734686143.591,-29.297,-15.625,-25.391,-31.738,-38.086
1734686143.595,20.020,-24.414,-26.855,-12.695,736.816
1734686143.599,-14.648,-28.320,-24.414,-27.832,504.883
1734686143.603,-70.801,-28.320,-22.949,-48.340,-171.875
1734686143.607,-71.777,-18.066,-20.996,-44.434,-187.988
1734686143.610,-47.852,-15.625,-21.484,-40.527,-168.945
1734686143.614,18.066,-22.949,-25.391,-16.113,-22.949
1734686143.618,6.348,-18.555,-29.785,-19.531,109.375
1734686143.622,-73.730,-12.207,-26.855,-48.340,49.316
1734686143.626,-73.730,-18.066,-20.508,-47.363,-107.422
1734686143.630,-39.551,-34.180,-22.949,-39.062,-77.637
1734686143.634,9.277,-31.738,-25.879,-18.555,234.375
1734686143.637,11.230,-36.621,-25.391,-7.324,638.672
1734686143.641,-53.223,-25.391,-22.949,-29.785,472.656
1734686143.645,-68.848,-10.254,-19.043,-37.598,-179.688
1734686143.649,-45.898,-22.461,-22.949,-29.785,-249.023
1734686143.653,13.184,-25.879,-26.855,-6.836,-12.207
1734686143.653,16.602,-17.578,-24.902,-4.395,66.406
1734686143.657,-64.941,-18.066,-23.926,-37.109,-133.301
1734686143.661,-76.172,-17.578,-22.461,-34.180,-233.398
1734686143.665,-46.875,-23.438,-20.996,-26.367,-200.684
1734686143.669,7.812,-38.086,-23.926,-9.277,-42.969
1734686143.673,31.250,-29.297,-23.926,-3.418,53.223
1734686143.677,-39.062,-17.090,-19.531,-29.785,83.984
1734686143.680,-63.477,-11.230,-21.484,-28.809,630.371
1734686143.684,-38.086,-4.883,-17.090,-26.367,324.707
1734686143.688,6.836,-2.441,-12.207,-13.184,-235.352
1734686143.692,26.367,-2.441,-10.254,1.465,105.469
1734686143.696,-39.062,-11.719,-13.672,-24.414,127.930
1734686143.771,-68.848,-7.324,-15.137,-30.273,-290.039
1734686143.775,-50.293,-5.371,-14.160,-20.020,-321.289
1734686143.779,-7.324,-23.438,-18.066,-10.254,-72.754
1734686143.783,26.855,-19.043,-19.043,0.000,96.680
1734686143.787,-28.809,-20.508,-20.508,-21.973,-63.477
1734686143.791,-66.895,-27.832,-25.391,-30.273,-176.758
1734686143.795,-54.688,-19.043,-30.273,-20.996,195.312
1734686143.798,-15.625,-12.207,-29.297,-16.113,172.852
1734686143.802,32.227,-9.766,-17.090,-1.953,80.078
1734686143.806,-16.602,-12.695,-15.625,-17.578,211.914
1734686143.810,-68.359,-15.625,-26.367,-36.133,56.641
1734686143.814,-56.641,-19.531,-26.855,-28.809,-215.820
1734686143.785,-20.020,-19.043,-20.020,-19.531,-290.039
1734686143.789,37.109,-20.508,-21.973,0.488,29.297
1734686143.793,1.953,-24.902,-25.879,-18.555,118.652
1734686143.797,-56.641,-33.691,-25.879,-36.621,-180.664
1734686143.801,-48.828,-30.762,-24.902,-31.250,-283.203
1734686143.805,-11.719,-21.484,-30.762,-25.879,6.836
1734686143.809,41.016,-12.695,-34.668,-1.953,500.977
1734686143.812,14.160,-2.441,-28.809,-15.137,318.359
1734686143.816,-50.293,-9.277,-20.996,-42.969,-219.238
1734686143.820,-52.246,-20.996,-23.438,-30.762,-146.484
1734686143.824,-14.648,-19.043,-21.973,-13.184,220.703
1734686143.828,38.086,-14.160,-21.484,0.000,162.598
1734686143.804,14.160,-15.625,-28.809,-8.789,-28.809
1734686143.808,-51.758,-19.531,-27.344,-28.809,-39.551
1734686143.812,-44.922,-29.297,-21.973,-20.508,-117.676
1734686143.816,-18.555,-37.598,-24.902,-23.926,-326.660
1734686143.820,31.250,-31.250,-32.715,-20.996,-103.516
1734686143.824,29.785,-18.555,-37.109,-21.484,247.559
1734686143.828,-44.434,-12.207,-36.133,-42.969,104.492
1734686143.831,-53.223,-18.555,-25.879,-42.969,-234.375
1734686143.835,-28.320,-24.414,-15.625,-30.273,-327.637
1734686143.839,15.625,-23.438,-15.625,3.418,239.258
1734686143.843,14.648,-30.762,-20.020,3.418,320.312
1734686143.847,-59.570,-41.016,-24.902,-29.297,-170.898
1734686143.849,-72.266,-37.598,-27.344,-30.273,-246.094
1734686143.853,-45.898,-23.926,-28.809,-33.691,-98.145
1734686143.857,8.301,-16.602,-28.320,-18.066,-0.977
1734686143.861,32.227,-17.578,-19.531,0.000,26.855
1734686143.865,-41.992,-7.812,-18.555,-34.180,56.152
1734686143.869,-79.590,-17.090,-24.414,-48.340,187.500
1734686143.873,-54.199,-27.832,-24.902,-41.504,-9.766
1734686143.876,-6.836,-15.137,-24.902,-26.855,-116.699
1734686143.880,16.602,-21.484,-24.414,-15.137,223.633
1734686143.884,-43.945,-26.855,-25.391,-35.645,602.051
1734686143.888,-72.754,-16.602,-33.203,-52.246,59.570
1734686143.892,-62.988,-19.043,-40.527,-52.246,-342.285
1734686143.895,-23.926,-28.809,-34.668,-33.691,-102.539
1734686143.899,27.832,-18.066,-25.879,-8.789,66.895
1734686143.903,-25.391,-12.207,-30.762,-27.344,-72.754
1734686143.907,-70.312,-22.461,-41.504,-41.016,-244.141
1734686143.911,-56.641,-25.879,-41.504,-37.598,-82.520
1734686143.915,-16.602,-22.461,-37.598,-27.832,106.934
1734686143.919,24.902,-20.508,-45.898,-13.672,290.039
1734686143.922,-19.043,-17.090,-42.969,-32.227,166.992
1734686143.926,-63.477,-13.184,-36.133,-46.387,234.863
1734686143.930,-62.500,-21.973,-40.527,-43.945,158.691
1734686143.934,-21.973,-30.273,-34.180,-31.250,-251.465
1734686143.938,30.762,-27.832,-28.320,-10.254,-41.016
1734686143.938,-20.020,-33.691,-29.785,-23.926,86.426
1734686143.942,-79.590,-34.180,-37.598,-44.922,-222.656
1734686143.946,-70.801,-25.879,-38.574,-39.062,-319.824
1734686143.950,-32.715,-27.344,-29.297,-27.832,-189.941
1734686143.954,31.738,-28.320,-28.320,-3.418,44.434
1734686143.958,0.000,-20.020,-28.320,-14.648,113.770
1734686143.962,-65.918,-22.461,-26.367,-44.922,-58.105
1734686143.965,-60.059,-29.785,-23.438,-39.062,-16.602
1734686143.969,-28.320,-23.926,-24.902,-23.926,591.797
1734686143.973,27.344,-9.766,-35.645,-2.930,639.160
1734686143.977,8.301,-1.953,-32.715,-11.719,60.059
1734686143.981,-56.641,-9.766,-27.344,-34.668,-135.742
1734686143.985,-57.129,-25.879,-30.273,-28.809,-255.371
1734686143.989,-27.832,-16.113,-27.344,-19.043,-360.352
1734686143.993,28.809,-6.348,-30.273,2.930,-125.977
1734686143.997,22.949,-20.020,-27.344,3.906,131.348
1734686144.001,-50.781,-19.043,-16.113,-30.762,-67.871
1734686144.005,-66.406,-18.066,-17.578,-37.109,-197.266
1734686144.009,-41.016,-15.625,-18.555,-31.250,-159.180
1734686144.012,18.066,-12.207,-17.578,-4.883,270.996
1734686144.016,27.832,-11.719,-15.625,2.930,465.332
1734686144.020,-46.875,-8.789,-22.949,-25.879,64.941
1734686144.024,-68.848,-12.207,-24.414,-31.250,-147.949
1734686144.028,-46.387,-20.508,-20.020,-27.832,-35.156
1734686144.028,11.230,-20.996,-27.344,-14.648,-86.426
1734686144.032,35.156,-25.879,-27.344,-3.906,-0.977
1734686144.036,-40.039,-21.484,-25.391,-28.320,-50.781
1734686144.040,-71.289,-19.043,-23.438,-38.574,-226.074
1734686144.044,-57.129,-27.832,-24.414,-36.621,-187.012
1734686144.048,-15.137,-19.043,-29.297,-18.066,-38.086
1734686144.052,26.367,-15.137,-30.762,2.930,357.910
1734686144.055,-31.738,-26.855,-29.785,-21.973,705.078
1734686144.059,-71.289,-22.461,-27.344,-40.527,85.449
1734686144.063,-56.641,-14.160,-29.785,-36.621,-380.371
1734686144.067,-11.230,-23.438,-30.762,-26.367,-81.055
1734686144.071,37.598,-24.902,-26.367,-6.836,213.867
1734686144.076,-18.066,-29.785,-23.438,-23.438,-51.758
1734686144.080,-69.336,-38.086,-24.414,-41.016,-303.223
1734686144.084,-55.176,-31.738,-27.832,-32.715,-86.914
1734686144.088,-19.043,-17.090,-33.203,-24.902,-63.477
1734686144.092,23.926,-22.949,-33.691,-8.301,-30.273
1734686144.096,-15.625,-20.508,-31.738,-23.926,105.469
1734686144.100,-74.219,-5.859,-29.297,-37.598,362.305
1734686144.103,-60.547,-7.812,-20.020,-24.902,142.090
1734686144.107,-17.578,-13.184,-25.879,-15.137,-319.336
1734686144.111,36.133,-17.578,-27.832,7.324,-72.266
1734686144.115,0.977,-19.043,-21.973,-10.254,129.395
1734686144.119,-63.965,-21.973,-22.949,-39.062,-70.312
1734686144.119,-62.500,-24.902,-21.973,-34.668,-308.105
1734686144.123,-22.949,-29.297,-24.414,-26.855,-240.723
1734686144.127,34.180,-24.902,-32.227,-4.395,170.410
1734686144.131,7.812,-12.695,-30.762,-8.301,99.609
1734686144.179,7.812,-20.020,-29.785,-13.672,-168.945
1734686144.183,13.184,-29.785,-22.461,-11.719,121.094
1734686144.187,-61.035,-39.062,-25.391,-41.016,-100.098
1734686144.191,-67.383,-34.180,-27.832,-41.016,-305.664
1734686144.195,-34.180,-32.227,-29.785,-37.598,-155.273
1734686144.199,14.160,-33.691,-33.691,-17.090,393.555
1734686144.203,24.414,-20.996,-33.691,-5.371,527.344
1734686144.206,-47.363,-20.020,-28.320,-44.922,-59.570
1734686144.210,-69.336,-25.391,-30.273,-46.875,-259.277
1734686144.214,-42.969,-37.598,-30.273,-33.691,-126.953
1734686144.218,6.836,-41.992,-25.879,-18.066,-63.477
1734686144.222,26.855,-22.949,-25.879,-8.301,24.414
1734686144.223,-37.109,-12.695,-22.461,-33.691,6.348
1734686144.227,-67.383,-20.020,-23.438,-36.621,1.465
1734686144.231,-54.199,-37.598,-22.949,-22.461,-185.059
1734686144.235,-1.953,-31.250,-24.414,-9.277,-185.547
1734686144.239,32.715,-18.066,-28.809,0.488,75.684
1734686144.243,-43.945,-22.461,-26.367,-27.344,110.840
1734686144.247,-84.473,-17.090,-29.297,-45.898,3.418
1734686144.250,-62.988,-14.648,-32.227,-47.852,-96.191
1734686144.254,-15.137,-17.090,-26.367,-34.180,8.789
1734686144.258,29.297,-19.531,-26.855,-18.066,678.223
1734686144.262,-36.621,-24.902,-35.645,-44.434,453.613
1734686144.266,-80.566,-29.297,-30.762,-57.617,-225.586
1734686144.284,-62.012,-27.344,-29.297,-54.199,-190.918
1734686144.288,-19.043,-19.043,-25.391,-41.504,-170.410
1734686144.292,36.133,-19.531,-18.555,-15.625,-55.176
1734686144.296,-8.789,-15.137,-12.207,-25.391,-18.066
1734686144.300,-69.336,-4.395,-11.719,-42.480,-128.906
1734686144.304,-60.547,-7.324,-19.043,-44.434,-125.000
1734686144.308,-22.949,-13.672,-20.508,-31.738,-75.684
1734686144.311,23.438,-10.254,-26.367,-5.371,72.754
1734686144.315,-5.859,-14.160,-29.297,-19.043,449.219
1734686144.319,-67.383,-18.066,-26.367,-44.922,220.215
1734686144.323,-69.336,-17.090,-24.902,-42.969,-314.941
1734686144.327,-32.715,-18.555,-28.320,-29.785,-259.277
1734686144.313,28.809,-27.344,-30.762,-8.789,164.062
1734686144.317,6.348,-26.855,-24.902,-17.578,103.516
1734686144.321,-68.359,-30.273,-24.414,-40.527,-228.516
1734686144.325,-66.895,-39.062,-20.020,-32.715,-293.945
1734686144.329,-27.344,-32.227,-19.531,-19.043,-246.094
1734686144.333,33.203,-18.555,-22.949,1.465,63.477
1734686144.337,21.484,-23.438,-26.367,0.977,208.496
1734686144.340,-46.387,-17.090,-25.391,-22.461,105.469
1734686144.344,-48.828,-10.254,-23.926,-32.715,108.398
1734686144.348,-32.227,-19.043,-22.949,-40.527,-188.477
1734686144.352,14.648,-18.555,-17.578,-20.508,-230.469
1734686144.356,24.414,-25.879,-14.648,-7.812,230.469
1734686144.360,-54.688,-34.668,-17.090,-35.156,614.258
1734686144.364,-79.590,-31.250,-24.414,-49.805,103.027
1734686144.368,-49.316,-36.133,-24.902,-41.016,-324.707
1734686144.372,14.160,-26.855,-18.066,-10.254,-82.520
1734686144.376,33.691,-11.719,-19.043,-2.441,48.828
1734686144.380,-38.574,-20.996,-20.020,-30.762,-134.766
1734686144.384,-63.477,-19.531,-16.113,-33.203,-118.164
1734686144.387,-41.016,-21.973,-20.996,-35.645,60.059
1734686144.391,2.441,-35.645,-27.344,-27.344,-22.461
1734686144.395,34.668,-35.156,-30.762,-14.648,-40.527
1734686144.399,-29.297,-22.949,-33.691,-36.133,-62.988
1734686144.403,-73.242,-21.973,-29.785,-35.156,92.773
1734686144.405,-54.688,-24.902,-31.250,-31.250,-101.074
1734686144.409,-6.836,-18.066,-29.785,-22.949,-268.555
1734686144.413,22.949,-20.508,-26.855,-8.301,229.492
1734686144.417,-34.668,-33.203,-24.902,-26.855,266.113
1734686144.421,-69.824,-27.344,-22.461,-36.133,-120.117
1734686144.425,-58.594,-17.090,-28.809,-31.250,-186.523
1734686144.429,-7.812,-13.672,-31.250,-14.648,62.012
1734686144.432,42.480,-12.207,-24.902,4.883,747.559
1734686144.436,-26.855,-18.555,-26.367,-25.391,352.539
1734686144.440,-90.820,-26.855,-25.879,-40.527,-330.078
1734686144.444,-65.918,-25.879,-24.414,-34.668,-243.652
1734686144.448,-21.973,-28.809,-25.391,-32.227,-172.852
1734686144.463,27.344,-21.973,-21.973,-4.883,-69.824
1734686144.467,-12.695,-13.184,-22.461,-14.648,-26.855
1734686144.471,-68.359,-27.832,-24.902,-40.527,-92.773
1734686144.475,-62.988,-39.062,-24.414,-36.621,-196.777
1734686144.479,-30.273,-37.598,-26.367,-28.320,-215.332
1734686144.483,24.902,-28.809,-28.809,-4.395,87.891
1734686144.487,-4.883,-16.602,-31.738,-11.230,624.023
1734686144.490,-67.383,-15.625,-29.785,-38.086,533.691
1734686144.494,-62.500,-20.020,-28.809,-40.039,-206.543
1734686144.498,-29.785,-20.020,-31.250,-32.227,-311.035
1734686144.502,16.113,-18.555,-34.180,-12.207,21.973
1734686144.506,-8.301,-31.738,-36.621,-24.902,50.781
1734686144.493,-76.660,-35.156,-32.227,-50.781,-191.895
1734686144.497,-76.172,-32.227,-31.738,-50.293,-254.883
1734686144.501,-46.875,-29.297,-33.691,-39.062,-170.410
1734686144.505,16.113,-31.738,-29.297,-12.695,-24.414
1734686144.509,11.719,-35.156,-29.785,-19.043,68.848
1734686144.513,-60.059,-25.391,-30.273,-47.363,77.637
1734686144.517,-58.105,-15.625,-28.809,-44.922,236.328
1734686144.520,-26.367,-16.113,-33.203,-42.480,61.035
1734686144.524,27.344,-23.926,-34.180,-23.438,-24.414
1734686144.528,22.461,-25.879,-30.762,-7.324,218.750
1734686144.532,-55.664,-26.855,-29.297,-32.715,496.582
1734686144.536,-75.195,-31.738,-32.227,-45.410,0.977
1734686144.555,-57.129,-38.574,-31.738,-36.621,-411.621
1734686144.559,0.977,-35.156,-25.391,-14.648,-85.938
1734686144.563,22.949,-24.902,-20.996,-11.719,85.938
1734686144.567,-52.734,-25.879,-23.926,-46.387,-142.090
1734686144.571,-78.613,-29.297,-27.832,-46.387,-261.230
1734686144.575,-53.223,-35.156,-31.738,-29.785,-41.504
1734686144.579,-5.859,-31.250,-27.344,-20.020,125.488
1734686144.582,21.973,-20.996,-21.973,-12.695,104.980
1734686144.586,-42.480,-24.902,-23.438,-32.227,-62.500
1734686144.590,-70.312,-31.250,-21.973,-32.227,195.801
1734686144.594,-52.734,-23.926,-25.391,-27.344,119.141
1734686144.598,-10.742,-18.555,-23.926,-23.438,-222.168
1734686144.598,29.297,-23.926,-18.555,-7.324,44.434
1734686144.602,-34.668,-24.414,-18.066,-30.273,30.762
1734686144.606,-76.172,-20.508,-20.020,-39.062,-253.906
1734686144.610,-48.828,-20.508,-18.555,-29.297,-339.844
1734686144.614,-4.395,-24.902,-21.484,-21.484,-175.293
1734686144.618,33.691,-27.832,-26.855,-5.371,220.215
1734686144.622,-29.785,-31.738,-29.297,-26.855,199.219
1734686144.625,-83.984,-29.785,-25.391,-34.668,-157.227
1734686144.629,-61.035,-20.508,-25.879,-35.645,-164.062
1734686144.633,-22.949,-25.391,-31.738,-35.156,335.449
1734686144.637,24.902,-38.574,-29.785,-13.184,277.344
1734686144.641,-22.949,-31.738,-33.203,-30.762,-50.293
1734686144.645,-83.496,-27.344,-34.668,-50.293,74.219
1734686144.649,-58.105,-30.273,-25.879,-43.457,-69.824
1734686144.653,-30.762,-31.250,-28.809,-43.457,-269.531
1734686144.657,16.602,-26.855,-29.785,-21.484,-9.277
1734686144.661,7.812,-19.043,-25.391,-19.043,151.367
1734686144.665,-62.500,-17.090,-27.832,-43.457,36.621
1734686144.669,-61.035,-20.996,-25.391,-39.062,-39.062
1734686144.672,-26.855,-25.391,-18.066,-21.484,-104.492
1734686144.676,28.809,-32.715,-15.137,13.184,333.008
1734686144.680,7.812,-42.969,-21.973,-10.742,304.199
1734686144.684,-61.523,-37.109,-25.391,-52.734,-222.168
1734686144.688,-56.641,-30.273,-20.020,-45.410,-233.398
1734686144.690,-26.367,-24.414,-17.090,-22.949,72.754
1734686144.694,23.438,-21.973,-22.949,-5.859,62.988
1734686144.698,11.230,-30.273,-32.227,-17.090,27.344
1734686144.702,-60.059,-25.879,-27.832,-37.598,-15.625
1734686144.706,-68.848,-21.484,-24.414,-40.039,-62.012
1734686144.710,-40.039,-25.879,-31.250,-35.156,-17.578
1734686144.714,28.809,-21.973,-23.926,-3.906,96.680
1734686144.717,39.062,-18.555,-18.555,-3.418,275.391
1734686144.721,-40.527,-21.973,-21.973,-31.738,514.648
1734686144.725,-70.801,-34.180,-24.414,-38.086,123.535
1734686144.729,-45.410,-39.551,-24.902,-35.645,-356.445
1734686144.733,17.090,-24.414,-24.414,-11.230,-138.184
1734686144.740,31.738,-11.230,-22.949,-0.977,84.961
1734686144.744,-49.805,-22.949,-29.785,-28.809,-198.242
1734686144.748,-68.848,-24.902,-29.785,-42.480,-350.098
1734686144.752,-37.598,-19.043,-26.367,-39.062,-239.746
1734686144.756,1.953,-32.227,-30.273,-20.996,-102.051
1734686144.760,32.715,-26.855,-31.738,-9.277,213.867
1734686144.764,-35.645,-20.020,-27.832,-37.109,190.430
1734686144.767,-76.660,-25.879,-26.855,-45.410,366.211
1734686144.771,-62.012,-23.926,-30.273,-40.527,343.750
1734686144.775,-17.578,-23.926,-25.391,-29.297,-115.723
1734686144.779,26.855,-23.926,-20.508,-6.348,2.441
1734686144.783,-33.203,-16.113,-23.926,-25.879,24.414
1734686144.778,-81.543,-21.484,-24.414,-41.504,-234.375
1734686144.782,-58.594,-35.156,-20.996,-31.738,-325.195
1734686144.786,-20.508,-30.762,-21.484,-18.555,-182.617
1734686144.790,26.367,-21.973,-27.832,-2.930,90.820
1734686144.794,-24.414,-20.996,-36.133,-25.391,9.766
1734686144.798,-72.266,-20.508,-40.527,-44.434,-207.031
1734686144.802,-49.316,-26.855,-39.551,-31.250,132.324
1734686144.805,-10.254,-27.344,-31.250,-17.090,686.035
1734686144.809,34.668,-20.020,-31.250,-8.789,567.383
1734686144.813,-5.859,-21.973,-32.715,-24.902,73.242
1734686144.817,-64.941,-23.438,-24.902,-34.180,-74.707
1734686144.821,-60.059,-19.531,-24.902,-26.855,-71.289
1734686144.838,-26.367,-18.555,-23.438,-24.902,-262.207
1734686144.842,35.645,-12.695,-18.555,-4.395,-75.684
1734686144.846,12.695,-19.043,-21.973,-13.184,96.680
1734686144.850,-59.082,-27.344,-27.832,-40.527,-181.641
1734686144.854,-54.688,-21.484,-29.297,-33.203,-330.566
1734686144.858,-27.832,-13.184,-36.133,-24.902,-88.867
1734686144.862,22.949,-21.973,-40.527,-0.488,498.047
1734686144.865,15.137,-23.926,-26.855,1.465,513.184
1734686144.869,-58.105,-22.949,-25.391,-35.645,-120.117
1734686144.873,-62.012,-24.414,-27.344,-40.039,-227.539
1734686144.877,-35.645,-20.020,-29.297,-31.250,-55.664
1734686144.881,18.066,-21.484,-34.180,-7.812,-20.996
1734686144.868,7.812,-25.879,-28.809,-11.719,25.391
1734686144.872,-63.477,-33.203,-28.809,-47.852,-98.633
1734686144.876,-66.895,-26.367,-33.691,-41.504,-208.984
1734686144.880,-45.410,-19.043,-27.832,-27.832,-256.836
1734686144.884,8.789,-23.438,-31.738,-13.184,-90.820
1734686144.888,11.719,-22.461,-36.133,-10.254,250.977
1734686144.892,-66.895,-22.949,-24.902,-35.156,248.535
1734686144.895,-74.219,-27.344,-21.484,-35.156,-8.789
1734686144.899,-35.645,-17.578,-25.391,-24.902,-144.531
1734686144.903,20.020,-4.883,-20.996,-7.812,67.871
1734686144.907,30.762,-8.789,-19.531,-1.953,645.508
1734686144.911,-38.574,-15.625,-20.508,-36.133,180.664
1734686144.943,-63.965,-25.391,-21.973,-49.805,-201.172
1734686144.947,-40.527,-32.227,-25.879,-37.598,-55.176
1734686144.951,9.277,-22.949,-24.902,-22.949,-82.520
1734686144.955,31.738,-20.020,-23.438,-19.531,0.488
1734686144.959,-36.133,-26.855,-23.438,-46.875,-53.223
1734686144.963,-68.359,-24.414,-23.438,-44.922,0.488
1734686144.967,-55.176,-13.184,-27.344,-31.738,-69.336
1734686144.970,-11.230,-15.137,-30.273,-20.020,-232.422
1734686144.974,32.715,-16.602,-23.438,-1.465,40.527
1734686144.978,-16.602,-13.672,-20.020,-19.531,354.004
1734686144.982,-55.664,-15.137,-19.531,-37.598,20.996
1734686144.986,-47.363,-16.602,-18.555,-41.992,-277.832
1734686144.973,-20.020,-19.531,-22.949,-33.203,-204.590
1734686144.977,23.438,-23.438,-29.297,-12.207,54.688
1734686144.981,-22.461,-22.949,-30.273,-33.203,108.398
1734686144.985,-78.613,-34.180,-22.949,-47.852,-190.918
1734686144.989,-67.871,-31.738,-20.996,-30.762,-191.895
1734686144.993,-25.879,-25.391,-25.391,-28.320,230.957
1734686144.997,33.691,-22.949,-27.344,-15.137,281.738
1734686145.000,-10.254,-18.555,-31.738,-26.367,138.184
1734686145.004,-74.219,-22.461,-35.156,-48.340,-48.340
1734686145.008,-63.965,-20.996,-26.855,-28.320,-221.191
1734686145.012,-28.809,-33.203,-26.367,-11.719,-265.625
1734686145.016,33.203,-21.973,-31.738,7.812,-108.887
1734686145.020,12.695,-4.395,-26.367,-2.441,241.699
1734686145.024,-61.035,-18.066,-21.973,-28.320,325.195
1734686145.028,-67.871,-18.555,-26.855,-32.715,-166.016
1734686145.032,-39.062,-17.578,-30.762,-31.250,-290.527
1734686145.036,30.273,-16.113,-26.855,-9.766,73.242
1734686145.040,24.414,-10.742,-23.438,-6.348,214.355
1734686145.044,-46.387,-13.672,-24.414,-29.785,24.902
1734686145.047,-57.129,-23.438,-30.273,-30.762,-65.430
1734686145.051,-31.250,-23.438,-27.344,-15.137,243.164
1734686145.055,23.438,-23.926,-26.367,3.418,456.055
1734686145.059,16.113,-22.461,-28.809,-7.812,84.961
1734686145.063,-52.734,-23.438,-30.762,-39.062,-205.566
1734686145.065,-65.918,-22.461,-38.086,-39.062,-238.281
1734686145.069,-44.922,-21.973,-37.109,-35.645,-304.199
1734686145.073,13.672,-20.996,-32.227,-16.602,-168.457
1734686145.077,27.832,-19.531,-25.879,-6.348,24.414
1734686145.081,-48.340,-19.531,-25.879,-37.109,-44.922
1734686145.085,-58.594,-21.973,-24.902,-35.645,-29.785
1734686145.089,-31.250,-27.344,-22.949,-23.926,-102.051
1734686145.092,12.695,-15.625,-27.832,-6.348,6.348
1734686145.096,38.574,-11.230,-28.320,12.207,836.426
1734686145.100,-32.227,-15.625,-28.320,-23.926,652.344
1734686145.104,-68.359,-14.648,-29.297,-40.039,-233.887
1734686145.108,-48.828,-22.461,-26.855,-30.762,-325.684
1734686145.110,-4.395,-20.508,-30.273,-25.879,-201.660
1734686145.114,29.297,-7.812,-28.320,-9.766,-37.109
1734686145.118,-32.715,-14.160,-22.461,-19.531,-71.289
1734686145.122,-70.312,-21.973,-23.926,-36.621,-155.762
1734686145.126,-51.758,-13.672,-24.902,-35.645,-245.117
1734686145.130,-6.836,-14.160,-29.785,-20.020,-122.559
1734686145.134,20.508,-32.227,-36.133,-8.301,182.617
1734686145.137,-34.668,-30.273,-29.297,-33.691,398.926
1734686145.141,-67.871,-19.531,-20.020,-42.480,123.047
1734686145.145,-56.152,-22.461,-21.973,-34.180,-273.438
1734686145.149,-22.461,-18.555,-27.344,-20.996,-97.656
1734686145.153,33.691,-22.461,-25.391,2.930,266.113
1734686145.153,-11.719,-27.344,-25.879,-20.020,92.285
1734686145.157,-68.359,-12.695,-27.832,-42.480,-262.695
1734686145.161,-55.664,-10.742,-28.320,-34.668,-284.668
1734686145.165,-24.902,-14.160,-26.367,-25.391,-173.340
1734686145.202,-68.359,-19.531,-32.227,-46.387,-328.613
1734686145.206,-32.227,-26.367,-32.227,-45.898,-215.332
1734686145.210,26.367,-34.180,-35.645,-25.391,132.324
1734686145.214,13.672,-25.391,-38.574,-26.367,198.730
1734686145.218,-58.105,-22.949,-36.621,-47.852,-183.105
1734686145.222,-66.406,-28.320,-33.203,-35.156,-113.281
1734686145.226,-41.992,-29.297,-33.203,-22.949,245.605
1734686145.229,9.766,-25.879,-31.250,-7.324,175.293
1734686145.233,3.906,-27.344,-30.273,-12.695,-6.836
1734686145.237,-63.477,-38.086,-33.691,-39.551,-148.926
1734686145.241,-71.289,-41.992,-28.809,-37.598,90.820
1734686145.245,-44.434,-34.180,-24.902,-25.391,6.836
1734686145.243,6.836,-28.320,-24.414,-13.184,-166.016
1734686145.247,18.066,-24.414,-31.738,-7.324,72.754
1734686145.251,-55.664,-26.855,-36.133,-32.715,-2.441
1734686145.255,-72.754,-25.879,-33.691,-41.992,-135.742
1734686145.259,-52.734,-26.855,-36.133,-40.527,-224.609
1734686145.263,-2.930,-21.973,-35.645,-19.531,7.812
1734686145.267,32.227,-18.066,-32.715,-2.441,807.617
1734686145.270,-43.457,-22.949,-27.832,-29.785,541.016
1734686145.274,-70.312,-11.719,-22.949,-36.133,-238.770
1734686145.278,-37.598,-12.207,-23.926,-33.691,-156.738
1734686145.282,7.812,-14.648,-27.344,-21.484,-7.812
1734686145.286,38.574,-7.812,-24.414,-2.441,-2.441
1734686145.304,-24.902,-9.766,-21.484,-23.926,-97.656
1734686145.308,-67.871,-14.160,-22.949,-38.086,-78.613
1734686145.312,-50.781,-26.855,-28.320,-34.668,-102.051
1734686145.316,-14.160,-30.273,-32.227,-29.297,-210.449
1734686145.320,21.484,-14.648,-28.809,-12.207,47.852
1734686145.324,-29.785,-12.207,-21.484,-29.297,309.082
1734686145.328,-74.219,-17.578,-17.578,-35.645,14.648
1734686145.331,-58.105,-19.531,-22.461,-32.715,-219.727
1734686145.335,-19.531,-15.625,-27.832,-30.762,-160.156
1734686145.339,30.273,-19.043,-26.855,-8.789,412.598
1734686145.343,-15.625,-21.973,-28.809,-33.691,440.430
1734686145.347,-71.289,-16.602,-28.320,-49.316,-207.031
1734686145.350,-57.129,-13.184,-22.949,-36.133,-301.270
1734686145.354,-17.090,-9.277,-19.531,-25.391,-222.168
1734686145.358,38.086,-12.207,-18.066,7.324,-43.945
1734686145.362,1.465,-15.625,-14.160,-6.836,-23.438
1734686145.366,-64.453,-8.301,-14.648,-28.809,-175.293
1734686145.370,-61.035,-11.230,-19.531,-26.855,-65.918
1734686145.374,-26.855,-20.996,-21.973,-25.391,-24.414
1734686145.377,37.598,-19.531,-20.508,0.977,51.758
1734686145.381,18.555,-17.090,-13.672,-4.395,258.301
1734686145.385,-46.387,-14.160,-14.648,-33.691,530.762
1734686145.389,-47.363,1.465,-15.137,-31.250,234.375
1734686145.393,-32.715,-3.906,-16.602,-30.762,-179.199
1734686145.396,23.438,-15.625,-23.438,-12.695,43.457
1734686145.400,16.602,-15.137,-20.996,-17.090,136.230
1734686145.404,-57.129,-15.625,-17.578,-45.410,-162.598
1734686145.408,-63.965,-8.789,-23.926,-39.062,-270.996
1734686145.412,-40.039,-11.230,-28.809,-40.039,-166.016
1734686145.416,16.113,-17.578,-28.320,-21.484,93.262
1734686145.420,21.484,-15.625,-27.832,-10.742,271.484
1734686145.423,-50.781,-18.555,-25.879,-44.434,16.602
1734686145.427,-61.035,-23.926,-25.879,-35.156,155.273
1734686145.431,-35.645,-25.391,-27.344,-20.996,150.391
1734686145.435,10.254,-22.461,-30.273,-9.766,-98.145
1734686145.439,23.438,-17.578,-27.344,-4.395,113.281
1734686145.438,-40.527,-19.531,-20.020,-27.344,105.957
1734686145.442,-63.965,-20.020,-17.578,-30.273,-218.262
1734686145.446,-44.434,-11.230,-22.461,-34.668,-364.746
1734686145.450,2.930,-12.695,-21.973,-22.461,-204.590
1734686145.454,33.691,-7.812,-20.508,-5.371,71.289
1734686145.458,-31.738,-16.602,-21.484,-26.367,29.785
1734686145.462,-65.430,-19.043,-15.625,-43.945,-109.375
1734686145.465,-41.992,-7.812,-15.625,-32.227,-79.590
1734686145.469,-3.906,-12.207,-28.809,-13.672,455.566
1734686145.473,27.344,-14.160,-30.762,-12.695,515.625
1734686145.477,-30.273,-13.184,-22.461,-34.668,-56.152
1734686145.481,-64.453,-17.090,-19.531,-41.016,-198.730
1734686145.501,-45.410,-16.113,-19.043,-33.691,-221.191
1734686145.505,-12.695,-15.137,-20.020,-26.367,-229.492
1734686145.509,29.785,-14.160,-23.438,-5.859,-6.348
1734686145.513,-22.461,-14.648,-24.902,-24.414,167.969
1734686145.517,-75.684,-14.648,-25.879,-52.734,-87.891
1734686145.521,-61.035,-20.508,-22.949,-41.992,-236.816
1734686145.525,-19.531,-20.508,-21.973,-27.832,-71.777
1734686145.528,41.992,-11.230,-19.531,-4.883,477.539
1734686145.532,8.789,-16.113,-17.090,-18.555,446.777
1734686145.536,-62.988,-20.508,-21.484,-42.969,-188.477
1734686145.540,-65.430,-11.230,-21.973,-35.645,-284.180
1734686145.544,-22.949,-13.672,-25.391,-18.555,-140.137
1734686145.530,32.227,-22.461,-29.297,1.953,-13.672
1734686145.534,-4.883,-18.066,-22.461,-11.719,23.438
1734686145.538,-70.312,-17.090,-19.531,-36.133,-125.488
1734686145.542,-67.383,-20.508,-22.461,-42.969,-79.102
1734686145.546,-33.203,-20.996,-21.484,-40.039,-102.051
1734686145.550,28.809,-23.926,-21.973,-11.719,65.918
1734686145.554,-2.441,-20.996,-23.438,-22.461,273.926
1734686145.557,-79.102,-16.602,-27.832,-48.828,153.809
1734686145.561,-77.148,-19.531,-28.809,-35.645,-132.812
1734686145.565,-48.340,-20.508,-27.344,-27.344,-291.992
1734686145.569,19.531,-20.020,-25.879,-3.906,9.766
1734686145.573,23.438,-19.531,-26.855,-2.930,714.844
1734686145.575,-55.664,-21.484,-29.785,-40.039,428.711
1734686145.579,-70.801,-29.297,-30.762,-51.270,-239.258
1734686145.583,-48.340,-30.762,-30.762,-43.945,-166.992
1734686145.587,8.789,-27.344,-31.738,-24.414,-30.273
1734686145.591,13.184,-32.227,-34.180,-20.020,26.855
1734686145.595,-72.754,-27.344,-34.668,-46.387,-9.766
1734686145.599,-79.102,-19.531,-25.879,-42.480,194.824
1734686145.602,-43.945,-32.715,-23.926,-31.738,253.906
1734686145.606,3.906,-24.902,-27.832,-14.648,-77.637
1734686145.610,13.184,-12.695,-26.855,-1.953,11.230
1734686145.614,-53.223,-15.137,-28.809,-34.180,99.609
1734686145.618,-77.637,-21.973,-34.668,-50.781,-241.699
1734686145.618,-57.129,-25.391,-29.785,-39.062,-379.395
1734686145.622,5.371,-20.020,-20.020,-8.789,-169.434
1734686145.626,27.344,-21.484,-23.926,5.859,145.996
1734686145.630,-47.852,-18.555,-25.879,-24.902,-32.715
1734686145.634,-64.941,-12.207,-25.879,-34.180,-249.023
1734686145.638,-32.227,-18.555,-26.367,-18.555,45.410
1734686145.642,10.254,-16.113,-21.484,-5.859,463.379
1734686145.645,43.945,-9.277,-24.414,4.883,451.660
1734686145.649,-11.719,-3.418,-25.879,-12.695,87.891
1734686145.653,-52.734,-6.348,-23.438,-24.414,-114.258
1734686145.657,-42.480,-16.113,-22.949,-22.461,184.570
1734686145.661,-14.160,-12.695,-24.414,-16.113,-40.039
1734686145.681,30.762,-3.418,-28.320,4.395,-72.266
1734686145.685,-16.113,-3.418,-22.949,-15.137,125.000
1734686145.689,-65.918,-3.418,-17.090,-28.320,-102.539
1734686145.693,-49.805,-11.719,-15.625,-20.996,-307.129
1734686145.697,-17.090,-20.508,-18.066,-20.508,-236.328
1734686145.701,30.273,-12.207,-21.973,-4.883,194.336
1734686145.705,0.000,-8.789,-22.461,-10.742,226.074
1734686145.708,-53.223,-9.277,-19.531,-26.367,-203.125
1734686145.712,-55.664,-13.184,-20.020,-32.715,-279.785
1734686145.716,-27.344,-13.672,-25.391,-22.949,115.723
1734686145.720,36.621,-7.812,-19.531,0.488,290.039
1734686145.724,3.418,-10.254,-19.043,-14.160,119.141
1734686145.724,-60.059,-15.137,-18.555,-39.062,-141.113
1734686145.728,-50.781,-16.602,-16.113,-34.180,-104.004
1734686145.732,-27.832,-14.160,-22.949,-27.344,-190.918
1734686145.736,25.391,-16.602,-23.926,-1.953,-116.211
1734686145.740,14.160,-17.578,-20.996,-4.395,108.398
1734686145.744,-58.594,-20.508,-20.020,-25.879,76.660
1734686145.748,-65.918,-19.043,-19.043,-20.508,1.953
1734686145.751,-25.391,-9.277,-23.438,-18.066,-64.453
1734686145.755,30.762,-14.160,-26.367,-1.465,78.125
1734686145.759,21.973,-27.832,-22.461,3.906,635.742
1734686145.763,-57.129,-22.461,-25.391,-35.156,173.340
1734686145.767,-72.266,-13.184,-22.461,-50.781,-383.301
1734686145.772,-40.039,-17.578,-20.996,-38.574,-250.977
1734686145.776,8.789,-24.414,-28.809,-12.695,-45.410
1734686145.780,21.484,-19.531,-29.785,-2.441,26.855
1734686145.784,-43.457,-10.254,-29.297,-28.809,-156.738
1734686145.788,-57.617,-14.160,-28.809,-32.227,-84.473
1734686145.792,-41.016,-20.508,-27.832,-25.879,-101.074
1734686145.796,3.906,-15.137,-26.367,-6.348,-28.809
1734686145.799,30.273,-20.996,-18.555,1.953,187.500
1734686145.803,-41.016,-30.273,-14.648,-33.203,358.398
1734686145.807,-74.707,-26.367,-19.531,-40.527,296.875
1734686145.811,-41.504,-20.020,-19.531,-34.668,-226.074
1734686145.815,15.625,-17.578,-12.207,-9.277,-202.637
1734686145.814,47.363,-15.625,-13.184,18.555,75.684
1734686145.818,-22.461,-13.184,-8.789,-12.695,-57.129
1734686145.822,-65.430,-15.137,-11.230,-42.480,-303.711
1734686145.826,-55.176,-14.648,-18.066,-49.316,-240.234
1734686145.830,-20.996,-15.625,-18.555,-37.109,-7.324
1734686145.834,18.555,-19.043,-24.902,-19.043,168.945
1734686145.838,-43.945,-31.250,-25.879,-44.922,123.535
1734686145.841,-91.309,-41.016,-22.461,-60.547,13.672
1734686145.845,-63.477,-34.668,-23.926,-47.852,377.930
1734686145.849,-23.438,-30.762,-23.438,-27.344,286.133
1734686145.853,22.461,-26.367,-22.461,-2.930,-0.488
1734686145.857,-21.973,-22.461,-28.809,-30.762,25.391
1734686145.860,-72.754,-29.297,-30.762,-45.898,-157.715
1734686145.864,-59.082,-24.902,-31.738,-30.273,-310.059
1734686145.868,-27.832,-15.137,-33.203,-29.297,-211.426
1734686145.872,22.461,-12.695,-31.250,-18.066,63.965
1734686145.876,-11.230,-16.602,-31.738,-31.738,59.570
1734686145.880,-69.824,-19.531,-35.156,-48.340,-61.523
1734686145.884,-65.430,-24.414,-35.156,-45.410,-148.926
1734686145.887,-39.062,-30.273,-28.320,-36.621,254.883
1734686145.891,15.625,-25.879,-24.414,-9.766,679.199
1734686145.895,-3.418,-30.762,-22.461,-22.461,82.031
1734686145.899,-66.895,-42.480,-21.484,-46.387,-306.152
1734686145.903,-67.871,-34.180,-20.996,-39.551,-258.789
1734686145.903,-40.039,-25.879,-22.461,-34.668,-295.410
1734686145.907,25.879,-20.508,-19.043,-2.930,-104.004
1734686145.911,16.113,-17.578,-22.949,-5.371,112.793
1734686145.915,-60.547,-20.020,-29.297,-44.922,-48.340
1734686145.919,-67.383,-22.461,-23.438,-44.922,-213.379
1734686145.923,-38.086,-24.414,-22.949,-34.180,-142.090
1734686145.927,24.414,-25.879,-20.996,-15.137,276.367
1734686145.930,27.344,-23.926,-17.090,-2.930,817.871
1734686145.934,-47.363,-22.949,-24.414,-24.902,411.621
1734686145.938,-60.547,-15.137,-24.902,-29.785,-222.656
1734686145.942,-34.180,-14.648,-28.320,-28.320,-270.020
1734686145.946,21.973,-15.137,-29.785,-11.230,-5.859
1734686145.951,32.227,-17.090,-27.344,-0.977,16.602
1734686145.955,-40.039,-20.508,-31.250,-33.691,-199.219
1734686145.959,-50.781,-14.648,-28.809,-41.992,-112.305
1734686145.963,-29.785,-20.996,-32.715,-40.527,-176.758
1734686145.967,22.949,-17.090,-36.621,-22.949,-209.961
1734686145.971,43.457,-11.230,-27.832,-2.930,187.012
1734686145.975,-28.809,-12.207,-22.949,-18.066,471.191
1734686145.978,-59.570,-11.719,-26.855,-27.344,117.188
1734686145.982,-47.363,-8.789,-33.203,-26.367,-375.000
1734686145.986,-4.883,-15.625,-30.273,-0.488,-185.059
1734686145.990,24.902,-27.344,-24.414,8.789,120.605
1734686145.994,-31.250,-20.508,-20.508,-25.391,49.316
1734686145.994,-63.477,-30.273,-19.043,-34.668,-272.461
1734686145.998,-53.223,-29.785,-23.438,-24.902,-279.297
1734686146.002,-1.465,-7.324,-24.902,-9.277,96.191
1734686146.006,32.715,-13.184,-23.926,4.395,138.184
1734686146.010,-26.367,-20.996,-27.344,-17.090,-78.613
1734686146.014,-69.824,-15.625,-29.297,-36.621,-77.637
1734686146.018,-54.688,-20.020,-35.156,-30.762,376.953
1734686146.021,-16.602,-22.949,-42.480,-19.531,378.906
1734686146.025,30.273,-20.020,-41.016,-0.488,107.910
1734686146.029,-12.207,-32.715,-36.621,-24.414,53.711
1734686146.033,-70.312,-52.734,-37.109,-48.340,-64.941
1734686146.037,-62.500,-39.551,-34.180,-43.457,-299.316
1734686146.056,-22.461,-28.320,-28.809,-37.109,-270.996
1734686146.060,34.180,-30.762,-29.785,-8.789,197.266
1734686146.064,-3.418,-26.367,-31.738,-16.602,191.895
1734686146.068,-65.430,-26.367,-33.203,-42.480,-233.887
1734686146.072,-58.105,-18.555,-34.668,-38.574,-318.359
1734686146.076,-24.902,-18.555,-35.156,-30.273,74.219
1734686146.080,31.250,-17.578,-34.180,-13.184,301.758
1734686146.083,16.602,-17.578,-31.738,-18.066,43.945
1734686146.087,-60.059,-26.855,-30.273,-42.480,-225.098
1734686146.091,-73.242,-29.785,-36.621,-49.316,63.965
1734686146.095,-41.016,-21.973,-40.039,-43.457,5.859
1734686146.099,20.020,-13.672,-32.715,-11.230,-126.465
1734686146.098,15.137,-21.973,-23.926,-8.301,54.199
1734686146.102,-55.664,-28.809,-23.438,-38.086,-53.223
1734686146.106,-70.801,-14.648,-31.738,-41.504,-219.727
1734686146.110,-46.387,-15.137,-34.180,-34.180,-249.512
1734686146.114,23.926,-25.391,-30.762,-12.207,30.273
1734686146.118,36.133,-17.090,-27.344,-8.789,372.559
1734686146.122,-52.734,-10.742,-29.785,-40.527,233.887
1734686146.125,-72.266,-11.230,-27.344,-41.504,-41.504
1734686146.129,-41.992,-10.254,-19.043,-26.367,-89.844
1734686146.133,15.137,-13.672,-20.508,-3.906,512.695
1734686146.137,29.785,-19.531,-28.809,-1.953,660.645
1734686146.141,-31.250,-14.648,-28.320,-25.391,-33.203
1734686146.145,-53.223,-16.602,-23.438,-27.344,-227.539
1734686146.149,-56.152,-16.113,-24.414,-37.598,-279.297
1734686146.153,-3.418,-12.207,-24.902,-20.020,-231.445
1734686146.157,25.391,-18.555,-17.578,4.883,-3.418
1734686146.161,-53.711,-30.273,-19.043,-29.297,-20.508
1734686146.165,-80.566,-32.227,-23.926,-49.805,-155.273
1734686146.169,-55.664,-26.367,-22.461,-50.781,-207.520
1734686146.172,-7.812,-23.926,-25.391,-36.621,-66.406
1734686146.176,21.973,-24.414,-29.297,-18.555,504.395
1734686146.180,-51.270,-28.320,-28.809,-37.598,578.125
1734686146.184,-90.332,-27.344,-28.320,-53.223,-148.438
1734686146.188,-67.383,-23.926,-24.414,-47.852,-321.777
1734686146.188,-15.137,-25.879,-17.578,-33.691,-125.977
1734686146.192,19.043,-29.785,-26.367,-17.578,40.527
1734686146.196,-34.180,-29.297,-29.785,-36.621,0.977
1734686146.200,-76.172,-34.668,-26.855,-58.594,-243.652
1734686146.236,-6.348,-35.156,-28.320,-23.926,135.742
1734686146.240,-63.477,-37.109,-32.715,-44.922,-225.098
1734686146.244,-62.500,-31.738,-30.762,-31.738,-317.871
1734686146.248,-31.738,-25.391,-29.297,-19.531,23.438
1734686146.252,24.902,-28.809,-30.273,6.836,428.223
1734686146.256,-12.207,-29.297,-31.250,-8.301,208.496
1734686146.260,-78.613,-37.109,-29.785,-38.574,-41.016
1734686146.263,-71.777,-45.410,-27.832,-44.434,109.375
1734686146.267,-50.293,-28.320,-24.414,-43.945,70.312
1734686146.271,8.789,-20.508,-25.879,-14.648,-125.488
1734686146.275,5.371,-25.391,-27.832,-15.137,-15.137
1734686146.279,-62.988,-30.273,-21.484,-41.016,-5.371
1734686146.279,-70.312,-28.809,-22.949,-43.457,-244.629
1734686146.283,-39.062,-22.461,-23.926,-36.621,-375.488
1734686146.287,25.391,-27.344,-16.602,-14.648,-45.898
1734686146.291,12.695,-37.109,-19.531,-25.391,266.602
1734686146.295,-67.383,-27.832,-26.855,-58.594,-26.855
1734686146.299,-76.660,-19.043,-21.973,-54.199,-141.113
1734686146.303,-52.734,-19.531,-23.926,-41.992,-63.477
1734686146.306,3.906,-26.367,-27.344,-15.137,595.215
1734686146.310,13.184,-27.344,-23.926,-6.836,654.297
1734686146.314,-52.734,-20.020,-19.043,-41.504,-126.465
1734686146.318,-64.453,-41.504,-18.555,-47.363,-314.453
1734686146.322,-44.922,-50.781,-21.973,-41.992,-297.363
1734686146.326,-3.418,-20.996,-25.391,-37.109,-271.973
1734686146.330,7.812,-11.719,-34.180,-25.391,4.883
1734686146.334,-57.617,-11.719,-36.621,-45.410,157.715
1734686146.338,-82.520,-10.742,-28.320,-45.898,-160.156
1734686146.342,-62.012,-16.602,-25.391,-34.668,-359.375
1734686146.346,-18.066,-19.043,-29.297,-20.020,-118.652
1734686146.350,12.695,-21.484,-25.391,1.953,520.020
1734686146.353,-47.852,-31.738,-24.902,-26.855,626.953
1734686146.357,-83.008,-36.621,-27.832,-51.758,-163.086
1734686146.361,-64.941,-40.039,-32.227,-41.992,-358.887
1734686146.365,-16.602,-43.945,-33.691,-30.273,-125.977
1734686146.369,30.273,-34.668,-32.715,-12.695,11.719
1734686146.369,-24.414,-26.367,-32.227,-27.832,-78.125
1734686146.373,-67.871,-20.996,-27.344,-37.109,-290.039
1734686146.377,-54.199,-19.531,-25.879,-36.133,-271.484
1734686146.381,-19.531,-18.066,-35.156,-31.250,-231.445
1734686146.385,33.691,-20.020,-36.621,-9.766,49.805
1734686146.389,-10.742,-24.902,-33.203,-29.297,234.863
1734686146.393,-69.336,-27.344,-34.668,-44.434,418.945
1734686146.396,-57.617,-16.602,-32.715,-37.109,229.004
1734686146.400,-21.973,-7.812,-23.926,-32.715,-260.254
1734686146.404,23.438,-15.137,-20.996,-9.277,17.578
1734686146.408,-12.695,-30.273,-23.926,-18.555,255.371
1734686146.412,-68.359,-27.344,-29.297,-46.387,-207.031
1734686146.429,-68.848,-13.184,-33.203,-38.574,-373.535
1734686146.433,-35.156,-13.672,-28.809,-25.391,-172.852
1734686146.437,33.203,-23.926,-27.832,-5.371,29.297
1734686146.441,10.742,-18.555,-27.344,-12.695,-20.996
1734686146.445,-63.477,-12.695,-24.902,-37.598,-189.453
1734686146.449,-63.965,-20.508,-29.297,-25.391,-3.418
1734686146.453,-30.762,-27.344,-30.762,-17.090,-3.906
1734686146.456,17.578,-31.250,-33.203,-0.977,16.113
1734686146.460,-0.977,-32.227,-36.621,-5.859,169.922
1734686146.464,-69.824,-32.715,-33.203,-38.574,317.383
1734686146.468,-76.172,-37.109,-35.156,-46.387,190.918
1734686146.472,-52.734,-32.227,-35.645,-42.969,-272.461
1734686146.473,9.766,-24.414,-32.715,-17.578,-117.188
1734686146.477,30.273,-22.461,-31.738,-4.395,152.832
1734686146.481,-39.062,-16.602,-29.297,-29.785,-62.988
1734686146.485,-51.758,-6.836,-21.973,-35.156,-251.465
1734686146.489,-18.066,-2.441,-16.113,-32.227,-199.219
1734686146.493,29.297,-11.230,-13.672,-11.230,187.500
1734686146.497,34.668,-11.719,-11.719,-2.441,414.551
1734686146.500,-39.062,-10.254,-16.113,-39.551,29.297
1734686146.504,-63.477,-16.113,-20.508,-44.922,-130.859
1734686146.508,-40.039,-20.508,-19.531,-23.926,460.938
1734686146.512,5.371,-26.367,-18.066,-11.230,358.398
1734686146.516,24.902,-26.367,-17.090,-5.859,4.395
1734686146.534,-37.598,-23.438,-20.508,-24.902,-37.109
1734686146.538,-71.289,-25.879,-26.367,-35.156,-197.266
1734686146.542,-54.688,-20.508,-33.203,-42.969,-313.477
1734686146.546,-13.672,-17.578,-28.320,-29.297,-223.633
1734686146.550,33.691,-20.508,-22.949,-6.348,115.723
1734686146.554,-17.090,-28.809,-22.949,-21.484,158.203
1734686146.558,-65.918,-24.414,-24.414,-34.668,-83.008
1734686146.561,-46.875,-14.160,-24.902,-30.762,-255.859
1734686146.565,-10.742,-17.090,-25.391,-18.066,126.953
1734686146.569,33.691,-12.207,-21.484,-0.488,407.715
1734686146.573,-19.043,-8.789,-24.902,-19.043,-27.832
1734686146.577,-73.242,-14.160,-22.949,-30.762,-212.402
1734686146.563,-54.199,-25.879,-22.461,-31.738,-92.285
1734686146.567,-16.113,-14.160,-26.367,-22.461,-208.008
1734686146.571,35.156,-9.277,-20.996,1.953,-45.410
1734686146.575,-8.789,-24.902,-19.531,-16.113,105.469
1734686146.579,-68.848,-26.855,-18.066,-32.227,34.180
1734686146.583,-57.617,-34.180,-21.484,-36.133,-74.219
1734686146.587,-23.438,-27.832,-25.391,-36.621,-49.316
1734686146.590,28.320,-12.207,-25.879,-8.301,321.289
1734686146.594,3.418,-17.090,-26.855,-13.672,374.023
1734686146.598,-57.129,-19.531,-24.902,-36.621,-127.441
1734686146.602,-55.664,-27.832,-20.996,-35.156,-395.020
1734686146.606,-18.066,-27.344,-17.578,-23.438,-131.348
1734686146.610,36.133,-18.555,-21.973,4.883,494.141
1734686146.614,8.789,-17.090,-27.832,-9.277,214.844
1734686146.618,-57.617,-14.648,-31.250,-39.551,-111.816
1734686146.622,-55.664,-14.648,-29.785,-35.645,18.066
1734686146.626,-29.297,-12.695,-27.832,-28.809,-109.863
1734686146.630,27.832,-17.090,-27.344,-1.953,-20.508
1734686146.634,22.949,-15.137,-28.809,-2.441,197.266
1734686146.637,-52.734,-19.043,-22.949,-30.273,242.188
1734686146.641,-65.430,-22.461,-21.973,-37.109,70.801
1734686146.645,-41.504,-19.043,-26.367,-32.715,-313.965
1734686146.649,18.555,-22.461,-20.020,-9.766,-177.734
1734686146.653,33.203,-25.391,-21.973,-7.324,110.352
1734686146.659,-48.340,-31.250,-27.832,-31.738,-128.906
1734686146.663,-70.801,-42.480,-22.949,-30.273,-349.609
1734686146.667,-38.086,-31.738,-23.438,-24.902,-293.457
1734686146.671,14.648,-14.648,-24.902,-8.301,-118.652
1734686146.675,29.785,-25.391,-22.949,1.465,95.215
1734686146.679,-43.457,-25.879,-20.020,-28.809,86.914
1734686146.683,-76.172,-18.555,-20.508,-43.457,-82.520
1734686146.686,-54.688,-41.504,-24.902,-33.691,445.801
1734686146.690,-8.789,-41.992,-25.391,-17.090,817.383
1734686146.694,22.461,-18.066,-25.879,-18.555,224.609
1734686146.698,-36.621,-15.137,-27.832,-38.574,-129.883
1734686146.702,-66.406,-20.020,-24.414,-42.969,-229.492
1734686146.700,-50.293,-20.020,-25.391,-41.504,-360.840
1734686146.704,-4.883,-24.902,-30.273,-32.227,-260.254
1734686146.708,29.785,-26.855,-40.527,-13.672,117.188
1734686146.712,-31.250,-20.020,-41.992,-40.039,32.715
1734686146.716,-73.242,-19.531,-34.668,-57.129,-270.508
1734686146.720,-64.941,-20.508,-30.762,-44.434,-236.816
1734686146.724,-28.320,-23.926,-30.762,-30.273,313.477
1734686146.727,21.973,-22.949,-36.133,-11.719,629.883
1734686146.731,-18.066,-26.855,-39.062,-25.879,79.102
1734686146.735,-78.125,-28.320,-33.203,-42.480,-214.355
1734686146.739,-71.777,-31.738,-29.785,-30.273,-53.223
1734686146.743,-31.738,-36.621,-35.645,-22.461,-159.668
1734686146.768,22.949,-24.414,-32.227,-7.812,-54.199
1734686146.772,-14.160,-29.297,-26.855,-19.531,46.387
1734686146.776,-69.336,-36.133,-27.344,-38.574,-137.207
1734686146.780,-55.664,-22.949,-29.785,-42.480,-251.953
1734686146.784,-30.762,-12.207,-34.668,-46.387,-258.301
1734686146.788,22.461,-19.043,-32.715,-22.461,196.289
1734686146.792,-2.441,-29.785,-32.227,-29.297,776.855
1734686146.795,-67.871,-31.250,-36.133,-52.734,314.941
1734686146.799,-63.477,-29.785,-28.809,-48.828,-327.637
1734686146.803,-30.762,-35.645,-21.973,-37.109,-134.277
1734686146.807,31.250,-31.250,-29.297,-4.883,281.738
1734686146.811,17.578,-17.578,-30.762,-12.207,103.516
1734686146.804,-49.316,-18.066,-24.414,-35.156,-258.789
1734686146.808,-51.270,-17.578,-26.367,-32.715,-185.547
1734686146.812,-21.484,-17.090,-30.762,-28.809,-62.988
1734686146.816,27.832,-25.391,-32.227,-7.812,-110.840
1734686146.820,10.742,-35.645,-27.832,-7.812,28.320
1734686146.824,-66.406,-30.273,-28.809,-35.645,165.527
1734686146.828,-74.707,-24.902,-31.250,-31.738,-26.855
1734686146.831,-46.387,-34.180,-31.250,-20.020,-320.312
1734686146.835,4.395,-34.180,-33.203,-4.883,-224.121
1734686146.839,19.043,-20.996,-32.227,-1.953,314.941
1734686146.843,-51.758,-14.648,-32.227,-34.668,131.836
1734686146.847,-71.289,-14.160,-33.203,-44.434,-274.414
1734686146.850,-40.527,-12.207,-25.879,-32.715,-110.352
1734686146.854,10.254,-22.949,-25.879,-14.648,163.574
1734686146.858,26.367,-30.273,-28.320,-12.695,154.297
1734686146.862,-38.574,-19.043,-19.043,-37.598,-170.898
1734686146.866,-58.105,-19.043,-23.438,-42.480,-259.277
1734686146.870,-42.480,-21.973,-29.297,-30.273,-49.805
1734686146.874,-0.488,-19.043,-26.855,-15.625,104.980
1734686146.877,37.598,-17.578,-24.414,-5.371,219.238
1734686146.881,-20.020,-34.668,-20.508,-21.973,175.781
1734686146.885,-59.082,-40.527,-22.461,-30.273,384.277
1734686146.889,-44.434,-26.855,-35.645,-39.062,76.660
1734686146.893,-6.836,-20.996,-40.527,-30.273,-245.117
1734686146.897,31.738,-19.531,-30.273,-10.742,68.359
1734686146.901,-34.668,-21.973,-25.391,-37.109,-4.395
1734686146.905,-80.566,-28.320,-29.785,-52.734,-202.637
1734686146.909,-60.547,-30.273,-29.297,-41.992,-259.766
1734686146.913,-17.578,-39.551,-24.902,-22.949,-29.297
1734686146.917,36.133,-31.738,-29.785,0.488,368.164
1734686146.921,-0.488,-13.672,-29.297,-16.113,141.602
1734686146.924,-42.480,-16.113,-23.926,-28.809,-204.102
1734686146.928,-33.691,-22.461,-28.809,-21.484,38.574
1734686146.932,-0.977,-19.043,-24.414,-14.160,109.375
1734686146.936,39.551,-21.973,-18.066,1.465,-39.062
1734686146.940,-7.324,-27.832,-27.832,-20.996,-6.836
1734686146.938,-65.918,-20.996,-31.250,-45.410,-134.277
1734686146.942,-54.688,-21.484,-27.344,-41.016,-276.855
1734686146.946,-23.438,-25.879,-24.414,-25.879,-253.418
1734686146.950,38.086,-31.250,-21.484,1.465,-20.508
1734686146.954,12.207,-26.367,-20.020,-8.789,88.379
1734686146.958,-56.641,-15.625,-20.996,-30.762,-5.859
1734686146.962,-52.734,-22.949,-25.879,-29.785,-65.918
1734686146.965,-22.949,-36.133,-26.367,-19.531,107.910
1734686146.969,34.180,-43.457,-23.926,9.277,816.895
1734686146.973,20.508,-29.297,-23.926,-0.488,741.699
1734686146.977,-52.734,-17.090,-23.926,-30.273,-123.535
1734686146.981,-55.664,-27.344,-21.973,-38.086,-290.039
1734686146.985,-27.344,-36.621,-24.902,-32.715,-267.090
1734686146.989,18.555,-33.691,-28.809,-1.953,-206.543
1734686146.993,22.949,-24.414,-19.531,-2.930,-4.395
1734686146.997,-49.805,-21.484,-17.090,-31.738,-56.152
1734686147.001,-63.965,-18.066,-22.461,-22.949,-211.426
1734686147.005,-41.504,-18.555,-22.949,-17.090,-211.426
1734686147.009,20.020,-15.625,-20.020,1.953,-40.039
1734686147.012,30.273,-11.719,-24.414,3.906,558.594
1734686147.016,-43.945,-8.301,-26.367,-30.273,565.430
1734686147.020,-57.129,-12.207,-27.832,-34.180,-159.180
1734686147.024,-29.297,-20.020,-29.785,-29.297,-333.496
1734686147.028,16.602,-24.414,-32.715,-17.578,-90.820
1734686147.029,30.273,-20.996,-34.180,-11.230,61.523
1734686147.033,-34.668,-18.555,-39.062,-35.645,-136.230
1734686147.037,-63.965,-28.320,-39.551,-50.781,-243.164
1734686147.041,-51.270,-33.203,-33.691,-44.922,-185.547
1734686147.045,-3.906,-29.297,-30.762,-23.926,-117.676
1734686147.049,24.414,-24.902,-32.715,-4.883,83.984
1734686147.053,-38.086,-24.414,-36.133,-32.227,185.547
1734686147.056,-77.148,-29.297,-40.039,-46.875,480.469
1734686147.060,-54.199,-22.461,-34.668,-33.691,219.238
1734686147.064,-6.348,-22.461,-31.250,-21.973,-189.453
1734686147.068,23.926,-20.508,-35.645,-4.883,176.758
1734686147.072,-32.227,-24.414,-32.227,-26.855,131.836
1734686147.075,-72.754,-33.691,-34.180,-43.945,-234.863
1734686147.079,-53.711,-19.531,-36.621,-26.367,-354.004
1734686147.083,-16.113,-12.695,-34.668,-16.113,-78.125
1734686147.087,20.020,-11.719,-42.969,-8.789,233.887
1734686147.091,-33.203,-16.602,-47.363,-30.762,-17.578
1734686147.095,-82.031,-24.902,-47.363,-50.293,-151.855
1734686147.099,-66.895,-21.484,-38.574,-42.480,140.625
1734686147.102,-32.227,-17.090,-34.180,-31.250,158.691
1734686147.106,17.578,-21.484,-40.527,-13.184,-19.043
1734686147.110,-17.090,-24.414,-43.457,-29.297,45.898
1734686147.114,-71.289,-28.320,-39.551,-50.293,-38.086
1734686147.118,-64.453,-39.551,-36.621,-46.875,-242.188
1734686147.120,-34.180,-42.480,-40.039,-32.715,-220.215
1734686147.124,25.879,-23.438,-36.133,-0.488,83.496
1734686147.128,0.977,-25.879,-38.086,-13.672,259.766
1734686147.132,-67.383,-24.414,-41.016,-43.945,-117.188
1734686147.136,-69.824,-22.461,-41.504,-43.945,-354.004
1734686147.140,-47.363,-35.156,-46.875,-36.621,-79.590
1734686147.144,14.160,-31.250,-43.457,-8.789,614.258
1734686147.147,10.742,-18.066,-32.227,-8.789,480.957
1734686147.151,-56.152,-18.555,-29.785,-38.086,-224.121
1734686147.155,-59.082,-34.668,-26.367,-41.016,-187.988
1734686147.159,-29.297,-29.785,-22.949,-25.391,114.258
1734686147.163,21.973,-15.625,-23.926,-8.789,-6.836
1734686147.180,14.648,-24.902,-29.785,-11.230,25.391
1734686147.184,-63.965,-29.297,-35.645,-41.992,-34.180
1734686147.188,-74.219,-19.043,-30.273,-46.387,-130.371
1734686147.192,-44.434,-17.578,-29.785,-34.180,-148.438
1734686147.196,12.207,-22.949,-28.809,-10.742,-142.578
1734686147.200,29.297,-24.414,-28.809,-0.488,484.375
1734686147.204,-43.945,-25.391,-32.227,-25.391,550.781
1734686147.207,-72.266,-27.344,-30.273,-38.086,-154.785
1734686147.211,-54.688,-36.133,-32.227,-40.039,-270.996
1734686147.215,-1.465,-29.297,-34.668,-21.484,101.074
1734686147.219,17.090,-21.484,-31.250,-8.789,210.449
1734686147.223,-56.641,-20.996,-24.414,-38.574,-134.766
1734686147.223,-83.496,-23.438,-23.926,-51.758,-243.164
1734686147.227,-57.617,-29.297,-28.320,-47.363,-99.121
1734686147.231,-1.465,-23.438,-29.785,-26.367,-105.469
1734686147.235,27.832,-23.926,-24.414,-8.789,-25.879
1734686147.285,-11.719,-13.672,-14.648,-14.648,-181.152
1734686147.289,36.621,-10.254,-14.160,4.883,22.461
1734686147.293,-8.789,-22.949,-18.555,-16.113,-36.133
1734686147.297,-63.965,-24.414,-16.602,-45.898,-254.883
1734686147.301,-54.688,-28.809,-10.254,-40.039,-227.051
1734686147.305,-13.672,-29.297,-17.578,-25.391,-42.969
1734686147.309,37.109,-20.508,-27.344,-5.859,87.891
1734686147.312,2.930,-18.555,-21.484,-20.508,106.934
1734686147.316,-53.711,-21.973,-15.625,-42.969,242.676
1734686147.320,-49.316,-20.020,-19.531,-36.133,242.188
1734686147.324,-20.508,-16.602,-27.832,-36.133,-247.070
1734686147.328,35.156,-25.879,-26.855,-11.719,-132.812
1734686147.314,15.625,-35.645,-24.902,-7.812,78.613
1734686147.318,-60.547,-19.043,-27.832,-32.227,-189.941
1734686147.322,-58.105,-5.859,-25.391,-30.273,-329.590
1734686147.326,-26.855,-13.184,-28.809,-20.996,-277.832
1734686147.330,25.879,-22.949,-33.203,2.441,37.109
1734686147.334,6.836,-25.879,-30.762,-7.324,208.496
1734686147.338,-65.918,-29.297,-29.297,-43.457,-56.641
1734686147.341,-65.430,-32.715,-33.203,-38.086,-28.809
1734686147.345,-38.086,-21.973,-29.297,-28.809,9.766
1734686147.349,16.113,-17.090,-28.320,-5.371,-1.465
1734686147.353,17.578,-33.203,-26.367,-1.953,97.168
1734686147.357,-47.363,-39.551,-20.996,-31.250,-22.949
1734686147.361,-58.105,-22.461,-26.367,-24.902,359.375
1734686147.365,-33.203,-14.648,-29.297,-14.160,278.320
1734686147.369,18.555,-15.625,-27.344,-10.742,-111.328
1734686147.373,35.645,-11.230,-25.879,-7.324,85.449
1734686147.377,-41.992,-11.719,-24.902,-31.250,-101.074
1734686147.381,-65.918,-20.996,-24.414,-36.133,-217.285
1734686147.385,-36.133,-15.625,-26.367,-27.832,-38.574
1734686147.388,11.230,-17.090,-33.203,-7.812,306.641
1734686147.392,28.320,-34.668,-35.156,4.883,417.480
1734686147.396,-36.621,-24.902,-26.855,-31.250,-100.586
1734686147.400,-64.453,-8.789,-26.855,-42.480,-268.555
1734686147.404,-42.480,-17.578,-28.320,-34.668,-210.938
1734686147.404,1.953,-21.484,-24.902,-22.461,-146.973
1734686147.408,34.668,-17.090,-26.855,-4.883,71.777
1734686147.412,-27.832,-16.602,-27.344,-24.902,-38.574
1734686147.416,-68.848,-16.602,-21.484,-39.551,-71.777
1734686147.420,-56.152,-18.555,-23.438,-37.109,-202.148
1734686147.424,-13.672,-39.062,-30.273,-22.949,-191.895
1734686147.428,26.855,-43.457,-32.227,-6.348,238.281
1734686147.431,-25.391,-23.926,-36.621,-24.902,687.012
1734686147.435,-72.266,-23.926,-39.551,-40.527,217.285
1734686147.439,-50.293,-31.250,-32.227,-36.133,-364.258
1734686147.443,-5.371,-25.879,-33.691,-23.438,-237.793
1734686147.447,39.062,-23.926,-33.203,-4.395,25.391
1734686147.465,-2.441,-34.180,-31.250,-25.391,-39.062
1734686147.469,-57.129,-24.414,-33.691,-39.062,-261.230
1734686147.473,-52.246,-16.602,-33.203,-30.273,-206.055
1734686147.477,-19.043,-16.602,-28.809,-24.414,-109.863
1734686147.481,32.715,-19.043,-29.785,-0.488,-18.555
1734686147.485,-0.488,-23.438,-31.738,-5.859,51.270
1734686147.489,-56.152,-26.855,-27.832,-25.879,245.117
1734686147.492,-39.551,-29.297,-27.344,-22.949,363.770
1734686147.496,-15.625,-25.391,-28.320,-20.020,-146.484
1734686147.500,36.133,-25.879,-20.508,7.324,-115.234
1734686147.504,18.066,-27.832,-20.508,-2.441,121.582
1734686147.508,-58.594,-30.762,-32.227,-27.344,-145.996
1734686147.493,-62.500,-37.109,-35.156,-24.902,-346.191
1734686147.497,-30.273,-28.320,-27.832,-22.949,-308.105
1734686147.501,29.785,-22.949,-26.855,2.930,-23.438
1734686147.505,21.484,-24.902,-26.367,1.465,37.598
1734686147.509,-49.805,-22.949,-24.902,-26.367,-156.738
1734686147.513,-61.035,-30.273,-24.902,-32.715,-10.742
1734686147.517,-38.086,-30.273,-25.391,-33.203,50.293
1734686147.520,21.973,-24.902,-27.832,-9.766,104.980
1734686147.524,25.391,-26.367,-28.320,-1.953,241.699
1734686147.528,-54.199,-28.320,-27.344,-34.180,37.109
1734686147.532,-67.871,-27.832,-25.879,-32.227,364.258
1734686147.536,-35.645,-20.508,-23.926,-23.438,377.930
1734686147.569,19.531,-14.648,-20.508,-5.859,-7.812
1734686147.573,24.902,-18.555,-20.508,-0.488,122.070
1734686147.577,-44.434,-20.020,-24.414,-26.855,-45.898
1734686147.581,-68.359,-19.043,-20.508,-31.250,-320.312
1734686147.585,-50.781,-20.996,-17.090,-26.855,-333.496
1734686147.589,7.812,-22.461,-25.391,-3.906,108.398
1734686147.593,29.785,-21.484,-22.949,0.977,333.984
1734686147.596,-34.180,-11.230,-14.648,-27.344,-13.184
1734686147.600,-65.430,-7.324,-19.043,-27.832,-165.039
1734686147.604,-44.922,-16.602,-14.648,-22.461,144.531
1734686147.608,3.906,-22.461,-11.719,-10.254,305.664
1734686147.612,32.715,-20.508,-17.578,2.441,95.703
1734686147.613,-20.996,-11.230,-19.043,-13.672,-53.711
1734686147.617,-60.059,-8.301,-19.043,-28.809,-200.684
1734686147.621,-46.875,-13.184,-23.926,-28.320,-299.805
1734686147.625,-1.465,-20.020,-24.902,-11.230,-240.234
1734686147.629,46.387,-20.996,-18.066,9.766,78.613
1734686147.633,-5.371,-21.484,-13.672,-4.883,202.148
1734686147.637,-61.035,-29.297,-18.555,-25.879,30.273
1734686147.640,-43.457,-7.812,-25.879,-28.809,-109.863
1734686147.644,1.953,-2.930,-27.832,-20.020,-82.031
1734686147.648,49.805,-12.695,-20.996,10.742,146.973
1734686147.652,6.348,0.977,-25.391,-3.418,56.152
1734686147.656,-46.875,4.883,-29.297,-32.227,-258.789
1734686147.645,-31.738,-5.371,-19.043,-24.414,-171.875
1734686147.649,-1.465,-12.695,-11.230,-5.371,417.480
1734686147.653,41.992,-17.090,-16.113,14.160,393.555
1734686147.657,1.953,-26.367,-17.090,3.418,-6.836
1734686147.661,-60.547,-24.902,-11.230,-9.277,-137.207
1734686147.665,-56.641,-27.344,-11.719,-10.742,-202.148
1734686147.669,-28.320,-36.621,-13.672,-17.090,-199.707
1734686147.672,23.438,-30.762,-11.230,4.883,-34.668
1734686147.676,4.395,-17.090,-10.254,0.000,267.090
1734686147.680,-65.430,-24.902,-16.602,-30.273,11.719
1734686147.684,-66.895,-19.531,-23.438,-32.715,-332.520
1734686147.688,-40.039,-10.742,-22.461,-35.156,-306.641
1734686147.689,17.578,-19.043,-13.184,-10.742,398.926
1734686147.693,17.090,-22.949,-17.090,-1.465,594.238
1734686147.697,-56.152,-24.414,-23.438,-32.715,-133.789
1734686147.701,-63.477,-16.602,-22.461,-35.645,-316.406
1734686147.705,-38.086,-7.812,-26.855,-23.438,-192.383
1734686147.709,17.090,-15.625,-22.461,-2.930,39.062
1734686147.713,16.113,-21.484,-19.043,-2.441,162.598
1734686147.716,-57.617,-20.996,-26.855,-37.109,42.480
1734686147.720,-67.383,-28.320,-32.715,-44.434,436.035
1734686147.724,-47.852,-29.785,-31.738,-39.062,204.590
1734686147.728,0.488,-32.227,-34.668,-23.438,-189.453
1734686147.732,19.531,-24.902,-34.668,-15.625,38.086
1734686147.750,-55.176,-19.531,-32.227,-44.922,-71.777
1734686147.754,-77.148,-22.949,-36.621,-47.852,-320.312
1734686147.758,-50.293,-18.066,-35.645,-40.039,-342.285
1734686147.762,0.000,-22.461,-28.809,-22.949,-2.441
1734686147.766,22.949,-33.691,-30.762,-9.766,148.438
1734686147.770,-54.199,-29.785,-37.109,-41.016,20.508
1734686147.774,-83.984,-19.531,-38.086,-55.664,-82.520
1734686147.777,-59.082,-14.648,-34.180,-42.969,68.359
1734686147.781,-9.766,-13.672,-28.809,-24.414,240.723
1734686147.785,29.297,-33.203,-27.832,-16.602,41.992
1734686147.789,-36.621,-36.621,-25.391,-43.945,-75.684
1734686147.793,-82.031,-12.695,-29.297,-55.664,-185.547
1734686147.778,-62.012,-19.043,-33.691,-51.758,-301.758
1734686147.782,-16.113,-31.250,-27.344,-37.598,-299.316
1734686147.786,25.879,-17.090,-25.391,-11.230,38.574
1734686147.790,-27.344,-8.789,-26.855,-28.809,91.797
1734686147.794,-70.801,-18.066,-24.902,-50.293,-139.160
1734686147.798,-48.828,-20.996,-27.832,-43.945,-99.609
1734686147.802,-13.672,-12.207,-31.250,-32.227,8.789
1734686147.805,38.086,-10.742,-28.320,-12.207,286.621
1734686147.809,-6.348,-21.484,-30.273,-32.227,217.773
1734686147.813,-68.848,-25.391,-34.180,-53.223,-166.504
1734686147.817,-49.805,-25.879,-31.250,-37.598,-173.340
1734686147.821,-11.719,-25.391,-18.555,-17.578,471.680
1734686147.825,34.668,-2.441,-17.090,-4.883,627.930
1734686147.829,2.930,-3.418,-22.949,-30.762,89.844
1734686147.833,-65.430,-20.508,-21.484,-49.316,-130.859
1734686147.837,-65.918,-24.414,-23.438,-37.109,-239.746
1734686147.841,-30.273,-18.066,-25.391,-28.809,-286.133
1734686147.845,21.484,-13.184,-25.879,-1.953,1.465
1734686147.849,3.906,-18.066,-27.344,-10.742,466.797
1734686147.852,-59.570,-13.184,-23.438,-39.062,329.102
1734686147.856,-63.477,-12.695,-17.578,-35.156,-135.742
1734686147.860,-34.180,-15.137,-20.996,-28.809,-208.496
1734686147.864,15.625,-9.277,-24.902,-5.859,184.570
1734686147.868,6.836,-14.648,-23.926,-15.625,191.895
1734686147.868,-56.641,-21.973,-23.438,-47.852,-225.586
1734686147.872,-71.289,-17.578,-21.484,-39.551,-319.824
1734686147.876,-54.688,-16.113,-25.391,-35.645,-219.238
1734686147.880,-2.930,-22.461,-34.668,-15.625,-70.312
1734686147.884,7.812,-24.414,-37.109,-11.719,20.508
1734686147.888,-68.848,-19.531,-31.250,-43.457,52.246
1734686147.892,-87.891,-25.879,-30.273,-36.621,296.875
1734686147.895,-57.129,-27.344,-27.832,-23.438,42.969
1734686147.899,-3.418,-20.508,-27.344,-11.719,-135.254
1734686147.903,15.137,-23.926,-32.715,-12.695,170.898
1734686147.907,-60.547,-25.391,-34.180,-45.410,346.680
1734686147.911,-92.285,-27.344,-34.668,-56.152,-16.602
1734686147.930,-62.500,-29.297,-34.668,-47.363,-324.707
1734686147.934,-3.418,-20.508,-33.203,-23.438,-78.613
1734686147.938,26.367,-22.949,-32.715,-4.395,157.227
1734686147.942,-41.992,-20.508,-36.621,-38.574,-113.281
1734686147.946,-69.336,-8.789,-35.645,-49.316,-260.742
1734686147.950,-46.387,-4.395,-26.855,-32.227,51.758
1734686147.954,-0.488,-9.766,-22.461,-18.555,164.551
1734686147.957,34.668,-22.949,-21.973,-4.395,26.367
1734686147.961,-32.715,-21.973,-28.809,-33.203,-93.750
1734686147.965,-78.613,-17.090,-30.762,-42.480,104.492
1734686147.969,-69.824,-20.508,-31.250,-33.691,11.230
1734686147.973,-32.227,-26.367,-29.297,-32.227,-277.344
1734686147.973,28.809,-32.715,-21.973,-7.324,19.043
1734686147.977,-23.438,-24.902,-24.902,-22.949,181.152
1734686147.981,-78.613,-25.879,-28.320,-43.945,-96.680
1734686147.985,-59.570,-24.414,-24.902,-36.621,-306.641
1734686147.989,-17.578,-13.672,-27.344,-19.531,-139.648
1734686147.993,52.246,-21.484,-28.809,20.996,488.281
1734686147.997,9.766,-27.344,-21.484,2.930,305.664
1734686148.000,-74.707,-23.926,-21.484,-44.922,-145.996
1734686148.004,-78.125,-29.785,-21.973,-48.828,-100.098
1734686148.008,-37.598,-32.715,-19.531,-36.133,327.637
1734686148.012,18.555,-28.809,-20.996,-15.625,314.941
1734686148.016,-17.578,-37.109,-20.508,-34.180,-23.438
1734686148.020,-86.426,-44.434,-21.973,-56.152,-110.840
1734686148.024,-84.961,-41.504,-22.949,-51.758,-203.125
1734686148.028,-43.945,-44.434,-19.531,-40.527,-268.066
1734686148.032,20.020,-50.781,-18.066,-7.812,24.414
1734686148.036,0.488,-46.875,-17.578,-13.672,354.980
1734686148.040,-75.195,-41.016,-21.973,-45.410,137.207
1734686148.044,-82.031,-36.621,-23.926,-50.781,-185.547
1734686148.047,-43.945,-35.645,-25.879,-45.898,-265.625
1734686148.051,18.066,-34.668,-28.809,-19.043,268.555
1734686148.055,7.324,-31.250,-29.297,-14.648,460.449
1734686148.059,-60.059,-32.227,-24.902,-37.598,-155.762
1734686148.063,-72.266,-36.621,-26.367,-37.109,-284.668
1734686148.064,-52.734,-32.715,-28.320,-30.273,-162.598
1734686148.068,14.160,-26.367,-24.902,-5.859,-76.172
1734686148.072,31.250,-19.531,-17.090,-3.418,59.082
1734686148.076,-47.852,-20.508,-19.531,-29.297,-90.820
1734686148.080,-73.730,-25.391,-25.879,-33.691,-174.805
1734686148.084,-51.270,-24.902,-21.484,-32.227,-38.086
1734686148.088,-1.953,-30.273,-20.020,-9.277,46.875
1734686148.091,18.066,-23.438,-25.391,3.906,267.578
1734686148.095,-47.852,-20.996,-24.414,-26.855,691.406
1734686148.099,-73.242,-27.344,-20.508,-33.203,447.266
1734686148.103,-55.176,-31.738,-28.809,-37.109,-238.770
1734686148.107,2.930,-33.203,-30.762,-20.020,-187.988
1734686148.110,37.109,-25.879,-26.367,-1.465,75.195
1734686148.114,-33.691,-24.414,-27.344,-26.855,-118.652
1734686148.118,-69.336,-25.879,-26.367,-33.203,-318.848
1734686148.122,-50.293,-24.902,-26.855,-32.227,-267.090
1734686148.126,-9.766,-28.320,-26.367,-27.344,-137.207
1734686148.130,28.809,-33.203,-23.438,-10.742,177.246
1734686148.134,-19.531,-33.203,-14.648,-23.438,163.086
1734686148.137,-67.383,-36.621,-11.719,-39.062,218.750
1734686148.141,-52.246,-41.504,-14.160,-33.203,182.129
1734686148.145,-12.207,-33.691,-22.949,-24.414,-144.531
1734686148.149,29.297,-15.137,-22.461,-8.789,-6.348
1734686148.153,-13.672,-18.066,-15.137,-17.090,215.820
1734686148.153,-62.500,-23.926,-16.602,-31.738,-106.445
1734686148.157,-55.176,-21.973,-20.020,-28.809,-325.195
1734686148.161,-22.461,-31.738,-19.043,-24.902,-239.258
1734686148.165,29.297,-36.133,-22.461,-4.395,26.855
1734686148.169,-12.207,-37.598,-24.902,-22.949,36.133
1734686148.173,-70.801,-30.762,-22.461,-46.875,-139.648
1734686148.177,-66.895,-29.297,-23.926,-40.039,-41.016
1734686148.180,-33.203,-27.344,-26.855,-27.832,493.164
1734686148.184,22.949,-16.602,-28.809,-8.301,496.582
1734686148.188,-3.906,-12.207,-23.926,-17.090,-44.434
1734686148.192,-65.918,-18.555,-29.297,-41.016,-170.410
1734686148.196,-69.336,-30.273,-26.855,-39.062,-99.121
1734686148.213,-40.039,-29.785,-20.020,-32.227,-223.145
1734686148.217,25.879,-27.344,-25.391,-13.672,-128.418
1734686148.221,11.230,-34.180,-29.297,-16.602,137.695
1734686148.225,-59.570,-35.156,-30.762,-44.434,-62.012
1734686148.229,-61.035,-33.203,-33.203,-33.203,-347.168
1734686148.233,-35.156,-30.762,-35.645,-22.949,-239.746
1734686148.237,21.973,-29.297,-29.297,-7.324,338.867
1734686148.240,22.949,-24.902,-25.879,-8.301,520.020
1734686148.244,-57.617,-19.531,-32.715,-48.340,-128.418
1734686148.248,-67.383,-17.090,-32.227,-54.688,-336.914
1734686148.252,-37.598,-16.113,-32.227,-42.969,-215.332
1734686148.256,15.137,-15.137,-30.762,-15.625,-107.422
1734686148.244,13.672,-25.879,-24.902,-14.160,-14.648
1734686148.248,-53.223,-38.574,-25.879,-39.062,-30.762
1734686148.252,-63.477,-25.879,-23.438,-37.598,18.555
1734686148.256,-39.062,-11.719,-23.926,-38.574,-180.664
1734686148.304,-68.359,-19.043,-25.879,-41.016,-323.242
1734686148.308,-52.246,-27.832,-29.297,-34.668,-173.340
1734686148.312,-9.766,-22.949,-30.762,-17.090,-142.578
1734686148.316,24.902,-21.484,-25.879,-2.930,76.172
1734686148.320,-29.785,-28.809,-23.438,-32.715,91.797
1734686148.324,-72.754,-28.320,-20.020,-35.156,125.977
1734686148.328,-65.430,-21.973,-15.625,-18.066,242.676
1734686148.331,-17.578,-19.043,-21.484,-13.184,-98.145
1734686148.335,40.039,-33.203,-26.855,1.465,0.488
1734686148.339,-9.766,-29.297,-27.344,-19.531,252.930
1734686148.343,-65.430,-18.066,-25.879,-43.945,-51.758
1734686148.347,-58.594,-13.184,-20.996,-42.480,-223.145
1734686148.348,-28.320,-11.230,-18.555,-35.156,-153.320
1734686148.352,26.367,-17.578,-24.414,-12.695,94.727
1734686148.356,-7.812,-28.809,-26.367,-22.461,76.172
1734686148.360,-70.312,-30.273,-20.996,-49.316,-263.672
1734686148.364,-62.012,-22.949,-20.508,-50.781,-255.859
1734686148.368,-26.367,-31.250,-22.949,-33.203,112.793
1734686148.372,32.715,-31.250,-21.973,1.465,282.715
1734686148.375,11.719,-34.180,-18.555,-7.324,212.402
1734686148.379,-55.176,-39.062,-29.297,-35.645,47.363
1734686148.383,-61.035,-18.066,-34.180,-30.762,326.660
1734686148.387,-33.691,-11.719,-32.227,-29.785,236.816
1734686148.391,27.832,-21.484,-33.203,-15.625,-61.035
1734686148.395,17.090,-21.973,-29.297,-12.695,90.332
1734686148.399,-47.852,-16.602,-27.832,-36.621,-123.535
1734686148.403,-53.223,-19.531,-21.973,-38.086,-346.191
1734686148.407,-30.273,-29.785,-18.066,-31.250,-304.688
1734686148.411,26.855,-29.785,-18.066,-0.977,-12.207
1734686148.415,30.762,-18.066,-16.113,7.812,190.918
1734686148.419,-38.574,-22.949,-19.043,-26.367,13.184
1734686148.422,-60.059,-31.738,-22.949,-33.691,-232.422
1734686148.426,-38.086,-31.738,-15.625,-19.043,84.961
1734686148.430,14.648,-13.672,-17.578,-0.488,458.984
1734686148.434,20.020,-5.371,-25.879,-4.395,138.184
1734686148.438,-48.828,-14.648,-26.367,-34.180,-138.672
1734686148.438,-68.359,-22.949,-30.762,-46.875,-158.691
1734686148.442,-45.410,-17.090,-33.203,-40.527,-247.070
1734686148.446,20.020,-16.113,-25.879,-12.207,-182.617
1734686148.450,49.316,-17.578,-22.461,8.789,60.547
1734686148.454,-16.113,-12.207,-23.438,-16.113,63.965
1734686148.458,-43.457,-13.672,-23.438,-33.203,-81.543
1734686148.462,-24.902,-13.672,-27.344,-34.668,-247.070
1734686148.465,20.508,-8.301,-26.367,-16.602,-41.992
1734686148.469,51.758,-23.926,-20.020,11.719,699.707
1734686148.473,-14.648,-22.949,-19.043,-11.719,438.477
1734686148.477,-62.500,-7.324,-26.367,-28.320,-311.523
1734686148.481,-52.734,-11.230,-32.227,-11.230,-170.410
1734686148.485,-16.113,-22.461,-29.785,-2.930,-16.602
1734686148.489,22.949,-30.762,-28.320,10.254,1.465
1734686148.493,-21.973,-30.273,-33.203,-16.113,-63.965
1734686148.497,-62.012,-26.367,-30.762,-34.668,-176.758
1734686148.501,-56.641,-25.879,-25.879,-29.785,-160.645
1734686148.505,-19.531,-30.273,-27.344,-23.926,-63.477
1734686148.509,26.855,-28.320,-33.691,-8.789,184.570
1734686148.512,-27.832,-19.043,-27.344,-24.414,427.734
1734686148.516,-83.496,-18.555,-23.438,-40.527,189.941
1734686148.520,-64.453,-9.277,-30.762,-39.551,-272.461
1734686148.524,-20.020,-6.348,-29.297,-27.344,-268.555
1734686148.528,41.016,-14.160,-25.879,-6.836,74.219
1734686148.529,0.977,-21.484,-33.203,-25.879,70.312
1734686148.533,-66.406,-33.691,-37.109,-48.828,-190.918
1734686148.537,-58.105,-25.391,-30.762,-39.551,-103.027
1734686148.541,-30.762,-17.090,-26.367,-34.668,58.594
1734686148.545,18.555,-16.113,-26.367,-20.020,129.883
1734686148.549,-0.488,-20.020,-32.227,-27.832,110.840
1734686148.553,-65.918,-18.555,-34.180,-50.781,-25.879
1734686148.556,-70.312,-24.902,-27.832,-44.922,464.355
1734686148.560,-38.574,-35.156,-25.879,-38.574,326.660
1734686148.564,20.996,-22.949,-26.855,-19.043,-72.754
1734686148.568,1.465,-18.555,-29.785,-21.484,115.723
1734686148.572,-71.289,-21.973,-33.691,-46.387,-89.844
1734686148.575,-66.895,-16.602,-28.809,-46.387,-321.777
1734686148.579,-36.133,-21.973,-28.320,-42.480,-307.617
1734686148.583,19.043,-13.672,-24.902,-12.695,-28.320
1734686148.587,16.602,-13.672,-22.461,-3.906,103.027
1734686148.591,-60.547,-24.414,-30.273,-35.156,-58.594
1734686148.595,-74.219,-17.090,-25.879,-40.039,-100.586
1734686148.599,-51.758,-11.230,-22.949,-34.668,238.770
1734686148.602,2.930,-16.602,-32.227,-15.137,616.211
1734686148.606,19.043,-25.879,-33.203,-13.672,219.727
1734686148.610,-57.617,-26.855,-32.227,-39.551,-124.512
1734686148.614,-83.008,-23.926,-28.320,-37.598,-128.418
1734686148.618,-58.105,-12.695,-23.926,-29.785,-248.047
1734686148.618,0.977,-5.371,-27.832,-18.066,-214.355
1734686148.622,24.902,-14.648,-32.227,-13.184,37.109
1734686148.626,-50.293,-22.461,-28.809,-41.992,2.930
1734686148.630,-82.520,-19.043,-23.438,-48.828,-247.559
1734686148.634,-48.340,-13.184,-24.414,-42.480,-304.199
1734686148.638,1.953,-22.461,-23.926,-24.414,41.504
1734686148.642,31.738,-15.625,-25.879,-3.418,746.582
1734686148.645,-26.367,-5.859,-24.414,-25.879,406.738
1734686148.649,-71.777,-28.809,-20.508,-45.410,-244.141
1734686148.653,-47.363,-27.832,-17.090,-33.691,-178.711
1734686148.657,2.441,-2.930,-12.207,-9.277,245.605
1734686148.661,38.574,-7.324,-11.230,-1.953,140.625
1734686148.696,-23.438,-8.301,-13.184,-27.344,-116.211
1734686148.700,-70.801,-11.719,-19.531,-38.574,-141.113
1734686148.704,-60.547,-19.531,-20.996,-35.645,-230.957
1734686148.708,-26.367,-21.484,-17.090,-30.762,-238.281
1734686148.712,27.832,-20.508,-20.996,-12.695,-12.695
1734686148.716,-22.949,-17.090,-25.879,-24.414,281.738
1734686148.720,-88.379,-25.391,-23.926,-41.992,171.875
1734686148.723,-63.965,-42.480,-20.996,-37.109,-205.566
1734686148.727,-23.438,-41.504,-20.508,-18.555,-291.016
1734686148.731,32.227,-30.762,-19.531,17.578,418.457
1734686148.735,-1.465,-13.672,-19.043,0.977,556.641
1734686148.739,-70.312,-14.160,-22.461,-37.109,-184.082
1734686148.723,-60.547,-16.602,-19.043,-35.156,-276.855
1734686148.727,-29.785,-20.020,-19.531,-30.273,-163.086
1734686148.731,26.855,-26.855,-26.855,-9.766,-30.762
1734686148.735,-0.977,-30.273,-28.320,-16.113,10.742
1734686148.739,-76.172,-39.551,-22.461,-48.828,-138.184
1734686148.743,-72.266,-38.574,-19.043,-44.434,-39.062
1734686148.747,-42.969,-16.113,-22.461,-37.109,-94.238
1734686148.750,11.230,-12.695,-27.344,-22.949,61.035
1734686148.754,5.859,-15.137,-33.203,-23.926,307.129
1734686148.758,-63.477,-13.672,-25.391,-47.852,116.211
1734686148.762,-68.359,-17.090,-20.020,-47.852,-167.969
1734686148.766,-43.945,-22.461,-28.809,-40.527,-160.156
1734686148.770,14.160,-27.344,-27.832,-21.973,177.246
1734686148.774,12.695,-35.156,-26.367,-19.531,730.957
1734686148.778,-62.012,-42.969,-27.344,-53.711,277.344
1734686148.782,-67.383,-27.344,-23.926,-55.664,-312.988
1734686148.786,-47.852,-15.625,-28.809,-38.086,-236.816
1734686148.790,-3.418,-28.320,-31.250,-21.484,55.664
1734686148.794,9.277,-36.621,-26.367,-16.113,146.484
1734686148.797,-54.199,-31.738,-23.438,-37.109,-183.105
1734686148.801,-75.195,-29.297,-26.855,-35.645,-98.145
1734686148.805,-54.199,-37.109,-30.273,-26.367,-90.332
1734686148.809,3.906,-26.855,-26.855,-11.230,-204.590
1734686148.813,30.273,-8.789,-22.461,-0.977,75.684
1734686148.814,-35.645,-14.648,-20.996,-25.391,283.691
1734686148.818,-65.918,-20.508,-23.926,-34.180,-41.504
1734686148.822,-48.340,-20.996,-28.809,-29.297,-266.602
1734686148.826,-1.465,-21.973,-30.273,-19.043,-104.004
1734686148.830,30.273,-27.344,-29.297,-2.930,296.875
1734686148.834,-26.855,-20.996,-26.855,-24.414,149.902
1734686148.838,-60.059,-26.855,-28.320,-37.109,-183.594
1734686148.841,-45.410,-32.715,-27.344,-25.879,-134.277
1734686148.845,-10.742,-19.043,-26.855,-12.207,420.410
1734686148.849,32.715,-17.090,-30.273,0.977,476.562
1734686148.853,-23.926,-14.648,-32.715,-30.762,-67.383
1734686148.857,-75.684,-14.160,-31.250,-54.688,-237.793
1734686148.860,-65.430,-22.461,-33.203,-48.828,-306.641
1734686148.864,-24.902,-28.809,-36.133,-32.227,-320.312
1734686148.868,30.273,-24.414,-30.762,-3.906,-59.570
1734686148.872,-7.812,-21.484,-27.344,-17.578,33.691
1734686148.876,-58.105,-25.879,-23.926,-41.016,-92.773
1734686148.880,-47.852,-17.090,-24.414,-27.344,-105.469
1734686148.884,-11.230,-21.484,-24.902,-14.160,-32.715
1734686148.887,45.898,-19.043,-22.461,0.488,501.953
1734686148.891,1.465,-15.137,-22.949,-17.090,707.520
1734686148.895,-68.359,-30.273,-21.484,-43.945,-43.945
1734686148.899,-63.965,-28.320,-22.949,-40.527,-344.238
