timestamps,TP9,AF7,AF8,TP10,Right AUX
1737965906.586,999.512,999.512,866.699,505.859,-1000.000
1737965906.590,-483.398,-401.855,-201.172,999.512,484.375
1737965906.594,-1000.000,-1000.000,-1000.000,-30.762,999.512
1737965906.598,-845.703,-840.332,-913.086,-1000.000,808.594
1737965906.602,539.551,531.250,304.199,-977.051,-573.730
1737965906.606,999.512,999.512,865.234,276.367,-1000.000
1737965906.610,-254.395,-138.672,-111.328,999.512,186.523
1737965906.613,-1000.000,-1000.000,-942.871,338.379,999.512
1737965906.617,-830.078,-837.402,-996.582,-914.062,799.805
1737965906.621,510.254,511.719,47.852,-1000.000,-539.551
1737965906.625,999.512,999.512,857.422,-106.934,-1000.000
1737965906.629,163.086,265.137,72.266,999.512,-286.621
1737965906.632,-1000.000,-1000.000,-874.512,624.512,983.887
1737965906.636,-865.234,-969.238,-1000.000,-758.301,921.387
1737965906.640,519.043,382.812,-155.762,-1000.000,-437.012
1737965906.644,999.512,999.512,843.750,-513.184,-1000.000
1737965906.648,531.738,591.309,317.383,956.055,-612.793
1737965906.652,-887.207,-806.641,-775.879,471.191,782.227
1737965906.656,-1000.000,-1000.000,-1000.000,-807.129,999.512
1737965906.659,343.262,179.199,-248.535,-1000.000,-220.215
1737965906.663,999.512,999.512,841.309,-750.977,-1000.000
1737965906.667,671.875,748.535,471.191,791.992,-755.859
1737965906.671,-717.285,-611.328,-712.891,928.711,624.023
1737965906.675,-1000.000,-1000.000,-1000.000,-606.934,999.512
1737965906.676,62.012,-209.473,-493.164,-1000.000,55.176
1737965906.680,999.512,999.512,669.922,-874.023,-1000.000
1737965906.684,805.664,836.914,632.324,604.004,-843.262
1737965906.688,-539.551,-553.223,-617.676,962.891,526.367
1737965906.692,-1000.000,-1000.000,-1000.000,-614.258,999.512
1737965906.696,-390.625,-594.238,-655.762,-1000.000,515.137
1737965906.700,980.957,881.348,578.125,-860.352,-932.617
1737965906.703,862.793,900.391,793.945,569.824,-923.340
1737965906.707,-567.871,-589.355,-467.773,999.512,556.152
1737965906.711,-1000.000,-1000.000,-1000.000,-450.195,999.512
1737965906.715,-656.250,-759.766,-773.438,-1000.000,746.582
1737965906.719,815.430,696.289,490.234,-880.859,-709.473
1737965906.722,970.215,999.512,816.895,481.445,-1000.000
1737965906.726,-509.277,-453.125,-352.051,999.512,448.242
1737965906.730,-1000.000,-1000.000,-1000.000,-248.047,999.512
1737965906.734,-788.086,-844.238,-889.648,-1000.000,804.688
1737965906.738,634.766,539.062,296.875,-958.008,-598.145
1737965906.742,999.512,999.512,847.656,274.902,-1000.000
1737965906.746,-334.473,-222.168,-132.812,999.512,268.555
1737965906.749,-1000.000,-1000.000,-949.707,168.457,999.512
1737965906.753,-836.426,-833.008,-998.535,-994.141,795.898
1737965906.757,522.461,512.207,95.703,-1000.000,-539.551
1737965906.761,999.512,999.512,869.629,42.480,-1000.000
1737965906.765,-35.645,180.664,30.762,999.512,-205.566
1737965906.766,-1000.000,-1000.000,-896.484,547.363,999.512
1737965906.770,-841.797,-932.617,-1000.000,-808.105,913.086
1737965906.774,509.277,419.922,-97.168,-1000.000,-422.852
1737965906.778,999.512,999.512,841.309,-349.121,-1000.000
1737965906.782,424.805,533.203,250.488,999.512,-554.199
1737965906.786,-939.941,-857.422,-801.758,775.391,836.914
1737965906.790,-1000.000,-1000.000,-1000.000,-661.133,999.512
1737965906.793,371.094,255.859,-229.980,-1000.000,-297.852
1737965906.797,999.512,999.512,822.754,-642.090,-1000.000
1737965906.801,580.078,604.004,393.066,851.562,-592.773
1737965906.805,-764.648,-700.684,-723.633,909.668,725.098
1737965906.809,-1000.000,-1000.000,-1000.000,-593.262,999.512
1737965906.811,191.406,-112.305,-446.289,-1000.000,-12.207
1737965906.815,999.512,999.512,735.840,-780.762,-1000.000
1737965906.819,799.316,823.242,605.957,719.727,-821.777
1737965906.823,-542.969,-546.387,-654.785,942.383,534.668
1737965906.827,-1000.000,-1000.000,-1000.000,-610.840,999.512
1737965906.831,-194.824,-524.902,-596.191,-1000.000,526.855
1737965906.835,999.512,920.410,632.812,-862.305,-921.875
1737965906.838,832.520,886.719,710.938,573.730,-926.270
1737965906.842,-551.758,-581.543,-572.754,999.512,551.758
1737965906.846,-1000.000,-1000.000,-1000.000,-465.332,999.512
1737965906.850,-623.535,-722.656,-741.699,-1000.000,676.270
1737965906.854,863.770,747.559,486.328,-845.215,-798.828
1737965906.871,906.738,995.605,805.176,540.039,-1000.000
1737965906.875,-591.309,-498.535,-301.758,999.512,497.559
1737965906.879,-1000.000,-1000.000,-1000.000,-255.859,999.512
1737965906.883,-777.832,-836.426,-863.281,-1000.000,797.852
1737965906.887,651.367,562.500,421.387,-907.227,-627.441
1737965906.891,999.512,999.512,890.625,372.070,-1000.000
1737965906.895,-361.816,-291.992,-179.688,999.512,356.934
1737965906.898,-1000.000,-1000.000,-991.699,196.777,999.512
1737965906.902,-834.961,-832.520,-930.176,-981.934,796.387
1737965906.906,521.484,516.113,269.531,-1000.000,-542.969
1737965906.910,999.512,999.512,886.719,64.941,-1000.000
1737965906.914,-35.645,71.289,-18.555,999.512,-114.258
1737965906.917,-1000.000,-1000.000,-901.855,553.711,999.512
1737965906.921,-845.215,-884.277,-1000.000,-792.969,847.656
1737965906.925,512.695,470.703,-77.148,-1000.000,-521.973
1737965906.929,999.512,999.512,839.844,-416.992,-1000.000
1737965906.933,352.051,475.586,228.027,986.328,-436.523
1737965906.937,-993.652,-901.367,-804.688,708.984,904.297
1737965906.941,-950.684,-1000.000,-1000.000,-679.199,999.512
1737965906.944,447.266,303.223,-216.797,-1000.000,-338.867
1737965906.948,999.512,999.512,846.680,-693.848,-1000.000
1737965906.952,604.980,670.410,445.801,815.918,-675.781
1737965906.956,-805.664,-711.426,-742.676,920.410,704.102
1737965906.960,-1000.000,-1000.000,-1000.000,-604.004,999.512
1737965906.961,238.281,6.348,-342.773,-1000.000,-32.715
1737965906.965,999.512,999.512,765.137,-868.652,-1000.000
1737965906.969,737.793,805.664,540.039,611.328,-815.430
1737965906.973,-629.395,-564.453,-682.617,961.426,566.406
1737965906.977,-1000.000,-1000.000,-1000.000,-614.258,999.512
1737965906.981,-97.656,-332.031,-466.797,-1000.000,237.793
1737965906.985,999.512,994.629,678.223,-858.398,-1000.000
1737965906.988,816.895,854.980,682.617,565.430,-876.465
1737965906.992,-542.480,-564.453,-533.691,999.512,528.809
1737965906.996,-1000.000,-1000.000,-1000.000,-422.852,999.512
1737965907.000,-580.566,-686.523,-729.004,-1000.000,640.625
1737965907.004,897.461,797.852,532.227,-841.309,-833.984
1737965907.006,895.508,953.613,804.688,524.902,-982.422
1737965907.010,-586.426,-551.758,-442.383,999.512,516.602
1737965907.014,-1000.000,-1000.000,-1000.000,-143.066,999.512
1737965907.018,-725.586,-822.266,-819.824,-1000.000,792.480
1737965907.022,726.562,594.238,424.805,-946.777,-641.113
1737965907.026,999.512,999.512,843.262,311.035,-1000.000
1737965907.030,-427.246,-353.516,-246.582,999.512,384.766
1737965907.033,-1000.000,-1000.000,-1000.000,286.621,999.512
1737965907.037,-845.215,-836.426,-928.711,-947.266,816.406
1737965907.041,539.062,523.438,229.492,-1000.000,-576.172
1737965907.045,999.512,999.512,862.305,21.484,-1000.000
1737965907.049,-236.816,-41.504,15.137,999.512,216.309
1737965907.052,-1000.000,-1000.000,-886.719,579.590,999.512
1737965907.056,-830.078,-856.445,-1000.000,-785.645,795.898
1737965907.060,510.254,492.676,-5.859,-1000.000,-520.020
1737965907.064,999.512,999.512,867.188,-375.488,-1000.000
1737965907.068,167.480,378.418,161.133,999.512,-409.180
1737965907.072,-1000.000,-955.078,-854.492,799.316,904.785
1737965907.076,-922.363,-1000.000,-1000.000,-644.043,999.512
1737965907.079,433.105,343.750,-92.773,-1000.000,-289.062
1737965907.083,999.512,999.512,866.211,-593.750,-1000.000
1737965907.087,578.125,628.906,365.723,882.812,-629.883
1737965907.091,-837.402,-764.648,-745.117,899.414,776.855
1737965907.095,-1000.000,-1000.000,-1000.000,-584.961,999.512
1737965907.097,285.645,109.863,-313.965,-1000.000,-189.941
1737965907.101,999.512,999.512,792.969,-704.590,-1000.000
1737965907.105,746.094,791.016,540.527,796.387,-725.586
1737965907.109,-643.555,-583.008,-684.082,923.828,651.367
1737965907.113,-1000.000,-1000.000,-1000.000,-597.656,999.512
1737965907.117,101.562,-107.910,-335.449,-1000.000,108.887
1737965907.121,999.512,999.512,772.949,-776.855,-1000.000
1737965907.124,797.363,816.895,670.898,724.121,-857.422
1737965907.128,-536.133,-544.434,-604.004,941.406,517.090
1737965907.132,-1000.000,-1000.000,-1000.000,-608.398,999.512
1737965907.136,-391.602,-639.648,-663.086,-1000.000,547.852
1737965907.140,979.980,845.215,558.594,-843.262,-908.691
1737965907.141,862.793,926.270,748.047,610.840,-945.312
1737965907.145,-569.824,-570.312,-520.508,999.512,534.668
1737965907.149,-1000.000,-1000.000,-1000.000,-503.906,999.512
1737965907.153,-698.242,-787.109,-794.434,-1000.000,759.277
1737965907.157,766.602,649.414,424.316,-852.539,-714.844
1737965907.161,999.512,999.512,844.238,555.176,-1000.000
1737965907.165,-480.957,-398.438,-167.480,999.512,508.789
1737965907.168,-1000.000,-1000.000,-974.121,-346.680,999.512
1737965907.172,-840.820,-840.820,-932.617,-1000.000,804.199
1737965907.176,548.828,531.738,291.992,-840.820,-576.660
1737965907.180,999.512,999.512,873.535,530.273,-1000.000
1737965907.184,-265.137,-141.602,-127.930,999.512,183.594
1737965907.187,-1000.000,-1000.000,-969.727,-109.863,999.512
1737965907.191,-829.102,-837.402,-973.145,-1000.000,823.730
1737965907.195,509.277,511.230,155.762,-848.633,-504.883
1737965907.199,999.512,999.512,856.445,515.137,-1000.000
1737965907.203,163.086,263.672,54.199,999.512,-279.785
1737965907.207,-1000.000,-1000.000,-869.141,159.668,988.770
1737965907.211,-865.234,-962.402,-1000.000,-1000.000,922.852
1737965907.214,519.043,393.555,-147.461,-958.008,-449.219
1737965907.218,999.512,999.512,829.590,362.305,-1000.000
1737965907.222,533.691,583.008,336.426,999.512,-425.293
1737965907.226,-891.602,-818.359,-750.488,572.754,886.719
1737965907.230,-1000.000,-1000.000,-1000.000,-841.797,999.512
1737965907.247,368.652,205.078,-277.344,-1000.000,-218.750
1737965907.251,999.512,999.512,811.523,267.090,-1000.000
1737965907.255,671.387,734.863,461.914,999.512,-706.055
1737965907.259,-717.285,-624.023,-721.680,729.492,646.973
1737965907.263,-1000.000,-1000.000,-1000.000,-637.207,999.512
1737965907.267,68.848,-197.754,-379.883,-1000.000,277.832
1737965907.271,999.512,999.512,753.418,-105.469,-1000.000
1737965907.274,805.176,835.449,606.445,999.512,-872.070
1737965907.278,-539.062,-552.734,-623.535,822.266,549.805
1737965907.282,-1000.000,-1000.000,-1000.000,-545.410,999.512
1737965907.286,-390.625,-580.078,-646.484,-1000.000,500.977
1737965907.290,980.469,888.672,548.340,-561.523,-939.453
1737965907.293,862.793,897.461,753.906,902.344,-920.410
1737965907.297,-567.871,-587.891,-450.195,893.555,552.246
1737965907.301,-1000.000,-1000.000,-1000.000,-586.914,999.512
1737965907.305,-658.203,-758.301,-779.297,-1000.000,716.797
1737965907.309,820.801,705.566,474.121,-759.766,-756.348
1737965907.313,953.613,999.512,811.523,709.473,-1000.000
1737965907.317,-535.156,-480.469,-353.516,999.512,491.211
1737965907.320,-1000.000,-1000.000,-1000.000,-498.047,999.512
1737965907.324,-788.086,-847.168,-827.148,-1000.000,817.871
1737965907.328,633.789,543.457,395.020,-847.168,-586.914
1737965907.332,999.512,999.512,829.102,543.945,-1000.000
1737965907.336,-334.473,-267.578,-188.965,999.512,301.270
1737965907.336,-1000.000,-1000.000,-969.238,-281.250,999.512
1737965907.340,-836.426,-832.031,-983.887,-1000.000,799.316
1737965907.344,522.461,513.672,102.539,-839.355,-545.898
1737965907.348,999.512,999.512,873.047,501.953,-1000.000
1737965907.352,-35.645,117.188,43.945,999.512,-104.492
1737965907.356,-1000.000,-1000.000,-890.625,87.891,999.512
1737965907.360,-845.215,-922.852,-1000.000,-1000.000,887.207
1737965907.363,512.695,418.457,-102.051,-982.910,-449.219
1737965907.367,999.512,999.512,846.680,287.598,-1000.000
1737965907.371,344.238,501.953,257.324,999.512,-461.914
1737965907.375,-975.586,-875.488,-804.688,484.863,860.352
1737965907.379,-999.512,-1000.000,-1000.000,-842.285,999.512
1737965907.381,354.980,246.094,-166.992,-1000.000,-164.062
1737965907.385,999.512,999.512,830.566,-154.297,-1000.000
1737965907.389,604.492,691.406,395.508,999.512,-703.613
1737965907.393,-799.805,-691.406,-742.188,696.289,704.590
1737965907.397,-1000.000,-1000.000,-1000.000,-700.195,999.512
1737965907.401,192.383,-0.977,-339.355,-1000.000,-74.707
1737965907.405,999.512,999.512,738.281,-580.566,-1000.000
1737965907.408,788.086,814.453,596.191,893.066,-770.508
1737965907.412,-579.590,-557.617,-625.000,895.996,614.746
1737965907.416,-1000.000,-1000.000,-1000.000,-585.938,999.512
1737965907.420,0.488,-219.238,-388.672,-1000.000,160.156
1737965907.424,999.512,999.512,694.336,-743.164,-1000.000
1737965907.427,799.805,832.031,659.180,759.277,-861.816
1737965907.431,-535.156,-556.152,-557.617,933.594,522.461
1737965907.435,-1000.000,-1000.000,-1000.000,-607.422,999.512
1737965907.439,-583.984,-712.402,-716.797,-1000.000,649.902
1737965907.443,895.020,762.695,489.258,-853.516,-823.730
1737965907.447,896.484,984.375,793.945,592.773,-987.305
1737965907.451,-589.844,-512.695,-353.027,999.512,513.184
1737965907.454,-1000.000,-1000.000,-1000.000,-490.234,999.512
1737965907.458,-769.043,-834.961,-849.609,-1000.000,800.293
1737965907.462,679.199,568.848,389.160,-846.680,-648.926
1737965907.466,999.512,999.512,859.863,543.457,-1000.000
1737965907.470,-429.688,-311.523,-148.926,999.512,443.848
1737965907.473,-1000.000,-1000.000,-970.703,-270.508,999.512
1737965907.477,-840.332,-833.984,-962.402,-1000.000,801.270
1737965907.481,530.762,519.043,184.082,-829.102,-551.270
1737965907.485,999.512,999.512,845.215,510.254,-1000.000
1737965907.489,-158.203,33.203,-33.691,999.512,16.602
1737965907.493,-1000.000,-1000.000,-922.852,145.020,999.512
1737965907.497,-832.031,-878.906,-1000.000,-1000.000,872.070
1737965907.500,506.348,472.656,50.293,-955.078,-441.406
1737965907.504,999.512,999.512,853.027,363.770,-1000.000
1737965907.508,314.941,434.082,143.555,999.512,-449.219
1737965907.512,-1000.000,-925.781,-836.426,533.203,906.738
1737965907.516,-944.824,-1000.000,-1000.000,-849.609,987.793
1737965907.517,444.824,318.359,-226.074,-1000.000,-371.094
1737965907.521,999.512,999.512,820.312,152.832,-1000.000
1737965907.525,602.539,660.156,412.598,999.512,-653.809
1737965907.529,-812.012,-724.609,-747.559,713.379,735.840
1737965907.533,-992.676,-1000.000,-1000.000,-649.902,999.512
1737965907.537,321.777,63.477,-373.535,-1000.000,-112.305
1737965907.541,999.512,999.512,774.414,-261.230,-1000.000
1737965907.544,742.676,794.922,548.340,999.512,-792.969
1737965907.548,-630.859,-562.988,-689.453,842.773,572.754
1737965907.552,-1000.000,-1000.000,-1000.000,-557.129,999.512
1737965907.556,-105.957,-389.160,-570.312,-1000.000,273.438
1737965907.560,999.512,977.539,605.469,-645.508,-1000.000
1737965907.562,821.289,864.258,651.855,848.145,-884.277
1737965907.566,-544.922,-568.359,-599.609,910.645,530.762
1737965907.570,-1000.000,-1000.000,-1000.000,-596.680,999.512
1737965907.574,-560.059,-672.363,-722.656,-1000.000,571.777
1737965907.622,-1000.000,-1000.000,-1000.000,-289.551,999.512
1737965907.626,-845.703,-839.355,-923.340,-1000.000,809.082
1737965907.630,540.527,529.297,184.082,-855.957,-575.195
1737965907.634,999.512,999.512,821.289,472.656,-1000.000
1737965907.638,-253.418,-116.211,-85.938,999.512,175.293
1737965907.642,-1000.000,-1000.000,-930.176,100.586,999.512
1737965907.646,-830.078,-849.609,-1000.000,-1000.000,821.289
1737965907.649,510.254,491.699,-67.871,-994.141,-549.316
1737965907.653,999.512,999.512,828.613,266.602,-1000.000
1737965907.657,156.250,312.500,270.508,999.512,-36.621
1737965907.661,-1000.000,-981.934,-789.551,489.258,999.512
1737965907.665,-921.387,-999.512,-1000.000,-848.145,906.250
1737965907.666,430.664,340.332,-164.062,-1000.000,-376.953
1737965907.670,999.512,999.512,833.496,-97.656,-1000.000
1737965907.674,525.879,605.957,334.473,999.512,-610.352
1737965907.678,-877.441,-789.551,-772.949,700.195,779.297
1737965907.682,-1000.000,-1000.000,-1000.000,-687.012,999.512
1737965907.686,277.344,153.809,-238.770,-1000.000,-202.637
1737965907.690,999.512,999.512,805.176,-764.160,-1000.000
1737965907.693,681.641,755.859,475.586,740.723,-750.000
1737965907.697,-702.148,-592.285,-672.852,937.012,619.141
1737965907.701,-1000.000,-1000.000,-1000.000,-606.934,999.512
1737965907.705,-0.977,-295.410,-543.945,-1000.000,131.348
1737965907.709,999.512,999.512,646.484,-848.633,-1000.000
1737965907.713,813.477,849.121,654.297,637.207,-859.375
1737965907.717,-543.945,-559.082,-613.281,957.520,526.855
1737965907.721,-1000.000,-1000.000,-1000.000,-613.281,999.512
1737965907.725,-384.766,-628.906,-685.547,-1000.000,506.836
1737965907.729,978.516,850.586,538.086,-860.840,-927.734
1737965907.733,763.184,816.895,649.414,570.312,-826.660
1737965907.737,-602.539,-616.211,-554.688,999.512,590.820
1737965907.740,-1000.000,-1000.000,-1000.000,-455.078,999.512
1737965907.744,-677.734,-787.598,-751.953,-1000.000,814.941
1737965907.748,806.152,667.969,469.238,-738.770,-647.949
1737965907.752,974.609,999.512,815.430,562.500,-1000.000
1737965907.756,-514.648,-422.363,-310.547,999.512,461.426
1737965907.758,-1000.000,-1000.000,-1000.000,-128.906,999.512
1737965907.762,-837.402,-842.773,-896.484,-1000.000,805.176
1737965907.766,569.824,535.645,263.672,-847.656,-589.844
1737965907.770,999.512,999.512,841.309,493.164,-1000.000
1737965907.774,-335.938,-184.082,-122.070,999.512,234.375
1737965907.778,-1000.000,-1000.000,-948.242,277.832,999.512
1737965907.782,-834.961,-835.449,-1000.000,-998.047,800.293
1737965907.785,520.996,512.695,43.945,-991.699,-540.527
1737965907.789,999.512,999.512,855.957,341.797,-1000.000
1737965907.793,-16.602,212.891,25.391,999.512,-207.520
1737965907.797,-1000.000,-1000.000,-889.160,565.430,999.512
1737965907.801,-842.285,-952.148,-1000.000,-812.012,895.020
1737965907.801,508.301,395.508,-152.344,-1000.000,-459.473
1737965907.805,999.512,999.512,815.918,61.523,-1000.000
1737965907.809,476.562,554.199,288.086,999.512,-549.316
1737965907.813,-917.480,-838.379,-773.926,735.840,822.754
1737965907.817,-1000.000,-1000.000,-1000.000,-648.926,999.512
1737965907.821,369.141,211.914,-295.410,-1000.000,-208.008
1737965907.825,999.512,999.512,796.875,-216.797,-1000.000
1737965907.828,674.316,722.656,536.133,999.512,-638.672
1737965907.832,-721.680,-639.160,-673.828,851.562,737.793
1737965907.836,-1000.000,-1000.000,-1000.000,-567.871,999.512
1737965907.840,116.211,-183.105,-495.117,-1000.000,85.449
1737965907.844,999.512,999.512,655.273,-268.555,-1000.000
1737965907.847,799.316,833.496,587.402,999.512,-858.398
1737965907.851,-536.133,-551.270,-640.137,844.238,518.555
1737965907.855,-1000.000,-1000.000,-1000.000,-558.594,999.512
1737965907.859,-390.625,-583.496,-655.273,-1000.000,458.984
1737965907.863,980.469,886.719,529.785,-669.434,-959.473
1737965907.867,862.793,899.414,707.520,824.219,-913.086
1737965907.871,-567.871,-586.914,-524.902,923.828,549.805
1737965907.874,-1000.000,-1000.000,-1000.000,-588.379,999.512
1737965907.878,-656.250,-760.742,-770.996,-1000.000,724.121
1737965907.882,815.430,694.336,437.012,-812.012,-737.793
1737965907.886,970.215,999.512,791.992,621.582,-1000.000
1737965907.890,-509.766,-450.195,-344.238,999.512,455.566
1737965907.893,-1000.000,-1000.000,-1000.000,-408.691,999.512
1737965907.897,-795.410,-844.727,-871.582,-1000.000,810.059
1737965907.901,624.512,539.062,302.246,-841.797,-589.355
1737965907.905,999.512,999.512,819.824,533.203,-1000.000
1737965907.909,-334.473,-223.145,-173.828,999.512,261.230
1737965907.913,-1000.000,-1000.000,-966.309,-169.434,999.512
1737965907.917,-836.426,-833.984,-954.590,-1000.000,800.781
1737965907.920,522.461,513.184,79.102,-855.469,-545.410
1737965907.924,999.512,999.512,821.289,494.141,-1000.000
1737965907.928,-36.133,166.992,35.645,999.512,-141.602
1737965907.932,-1000.000,-1000.000,-881.348,125.000,999.512
1737965907.936,-845.215,-934.082,-1000.000,-1000.000,881.836
1737965907.936,512.207,413.574,-139.160,-994.629,-462.402
1737965907.940,999.512,999.512,815.430,270.996,-1000.000
1737965907.944,344.238,525.879,209.961,999.512,-537.109
1737965907.948,-975.586,-859.375,-826.172,527.832,829.590
1737965907.952,-999.023,-1000.000,-1000.000,-830.566,999.512
1737965907.956,356.934,237.793,-246.094,-1000.000,-214.844
1737965907.960,999.512,999.512,821.289,-42.480,-1000.000
1737965907.963,641.602,694.824,376.465,999.512,-702.637
1737965907.967,-765.625,-672.363,-750.977,716.797,685.059
1737965907.971,-1000.000,-1000.000,-1000.000,-660.645,999.512
1737965907.975,195.801,-138.672,-462.402,-1000.000,26.855
1737965907.979,999.512,999.512,675.293,-494.141,-1000.000
1737965907.997,785.645,823.242,564.941,935.547,-817.383
1737965908.001,-548.828,-553.711,-624.512,880.859,556.641
1737965908.005,-1000.000,-1000.000,-1000.000,-577.148,999.512
1737965908.009,-282.715,-549.805,-654.297,-1000.000,441.406
1737965908.013,999.512,905.762,564.941,-698.242,-967.773
1737965908.017,845.703,891.602,703.125,802.246,-910.156
1737965908.021,-559.082,-584.473,-562.988,923.340,548.340
1737965908.024,-1000.000,-1000.000,-1000.000,-602.539,999.512
1737965908.028,-655.273,-738.281,-739.746,-1000.000,725.098
1737965908.032,839.844,736.816,504.883,-833.008,-750.000
1737965908.036,912.109,989.746,788.086,629.395,-1000.000
1737965908.040,-596.680,-516.602,-405.762,999.512,500.000
1737965908.043,-1000.000,-1000.000,-1000.000,-522.949,999.512
1737965908.047,-795.898,-843.262,-860.352,-1000.000,808.105
1737965908.051,649.902,558.105,320.801,-849.121,-616.699
1737965908.055,999.512,999.512,817.383,548.340,-1000.000
1737965908.059,-431.152,-311.035,-218.750,999.512,362.793
1737965908.063,-1000.000,-1000.000,-986.328,-310.547,999.512
1737965908.067,-840.332,-833.984,-946.777,-1000.000,817.383
1737965908.070,531.250,519.043,127.930,-840.820,-578.125
1737965908.074,999.512,999.512,848.145,500.488,-1000.000
1737965908.078,-159.180,29.785,70.312,999.512,221.680
1737965908.082,-1000.000,-1000.000,-884.766,59.082,999.512
1737965908.086,-832.031,-893.066,-1000.000,-1000.000,832.031
1737965908.087,506.348,447.754,-68.848,-952.148,-456.543
1737965908.091,999.512,999.512,819.336,343.750,-1000.000
1737965908.095,312.500,435.059,150.879,999.512,-449.707
1737965908.099,-995.117,-917.480,-846.191,492.188,884.766
1737965908.103,-973.633,-1000.000,-1000.000,-882.812,999.512
1737965908.107,390.625,276.367,-228.516,-1000.000,-278.320
1737965908.111,999.512,999.512,763.184,209.961,-1000.000
1737965908.114,595.703,657.227,377.930,999.512,-638.184
1737965908.118,-797.852,-718.262,-717.285,706.543,740.234
1737965908.122,-1000.000,-1000.000,-1000.000,-674.805,999.512
1737965908.126,222.168,-41.504,-404.297,-1000.000,-3.418
1737965908.130,999.512,999.512,727.051,-56.641,-1000.000
1737965908.132,743.652,802.734,561.523,999.512,-802.246
1737965908.136,-628.418,-565.430,-675.293,825.684,570.312
1737965908.140,-1000.000,-1000.000,-1000.000,-552.246,999.512
1737965908.144,-190.918,-460.449,-569.824,-1000.000,398.438
1737965908.148,999.512,944.336,607.910,-333.008,-982.422
1737965908.152,733.887,777.344,572.754,999.512,-803.223
1737965908.156,-584.473,-609.375,-613.281,854.980,577.148
1737965908.159,-1000.000,-1000.000,-1000.000,-562.500,999.512
1737965908.163,-588.379,-706.543,-733.887,-1000.000,659.180
1737965908.167,899.902,791.504,473.145,-635.742,-832.520
1737965908.171,895.020,952.637,731.934,828.613,-970.215
1737965908.175,-586.426,-559.570,-415.039,973.145,541.504
1737965908.177,-1000.000,-1000.000,-1000.000,-497.070,999.512
1737965908.181,-729.492,-831.055,-837.402,-1000.000,797.852
1737965908.185,728.027,587.891,396.484,-794.922,-637.207
1737965908.189,999.512,999.512,814.941,618.652,-1000.000
1737965908.193,-447.754,-370.117,-294.922,999.512,398.438
1737965908.197,-1000.000,-1000.000,-1000.000,-312.500,999.512
1737965908.201,-844.727,-836.426,-906.250,-1000.000,809.082
1737965908.204,538.574,524.414,278.809,-833.496,-563.965
1737965908.208,999.512,999.512,844.238,518.066,-1000.000
1737965908.212,-236.816,-58.105,-119.141,999.512,112.793
1737965908.216,-1000.000,-1000.000,-927.246,31.250,999.512
1737965908.220,-831.055,-859.863,-1000.000,-1000.000,818.359
1737965908.221,511.230,486.328,-62.500,-891.113,-520.508
1737965908.225,999.512,999.512,813.965,454.590,-1000.000
1737965908.229,156.250,355.469,135.254,999.512,-335.938
1737965908.233,-1000.000,-961.914,-859.375,404.785,941.406
1737965908.237,-921.387,-1000.000,-1000.000,-929.688,985.352
1737965908.241,431.152,331.055,-170.410,-1000.000,-328.125
1737965908.245,999.512,999.512,850.098,263.672,-1000.000
1737965908.248,535.156,622.070,411.133,999.512,-633.789
1737965908.252,-870.117,-768.555,-757.812,633.301,747.559
1737965908.256,-1000.000,-1000.000,-1000.000,-746.094,999.512
1737965908.260,279.785,91.797,-308.105,-1000.000,-48.340
1737965908.264,999.512,999.512,731.934,16.602,-1000.000
1737965908.268,707.031,771.973,493.164,999.512,-759.277
1737965908.272,-674.316,-583.496,-672.852,768.555,633.301
1737965908.276,-1000.000,-1000.000,-1000.000,-571.777,999.512
1737965908.280,0.488,-336.426,-535.156,-1000.000,207.520
1737965908.284,999.512,998.535,628.906,-595.703,-1000.000
1737965908.288,809.082,854.980,645.996,883.301,-870.605
1737965908.292,-540.039,-563.477,-550.293,899.902,528.809
1737965908.295,-1000.000,-1000.000,-1000.000,-588.867,999.512
1737965908.299,-482.910,-650.391,-711.426,-1000.000,562.988
1737965908.303,939.941,837.402,536.133,-761.719,-897.461
1737965908.307,878.418,925.781,770.020,739.746,-946.777
1737965908.311,-578.613,-576.172,-520.996,942.871,544.434
1737965908.312,-1000.000,-1000.000,-1000.000,-615.723,999.512
1737965908.316,-732.910,-799.805,-790.039,-1000.000,810.059
1737965908.320,744.629,638.184,440.918,-760.742,-630.371
1737965908.324,988.770,999.512,815.430,603.516,-1000.000
1737965908.328,-520.508,-412.598,-335.449,999.512,429.688
1737965908.332,-1000.000,-1000.000,-1000.000,-435.059,999.512
1737965908.336,-851.562,-841.797,-864.746,-1000.000,812.500
1737965908.339,551.758,534.180,246.582,-846.191,-583.496
1737965908.343,999.512,999.512,801.758,541.016,-1000.000
1737965908.347,-336.426,-165.039,-100.586,999.512,240.723
1737965908.351,-1000.000,-1000.000,-929.688,-247.559,999.512
1737965908.355,-829.102,-835.938,-1000.000,-1000.000,798.340
1737965908.372,512.207,511.230,0.000,-830.078,-535.156
1737965908.376,999.512,999.512,829.590,511.230,-1000.000
1737965908.380,75.684,227.539,71.289,999.512,-229.980
1737965908.384,-1000.000,-1000.000,-887.207,138.672,968.750
1737965908.388,-668.457,-773.926,-991.211,-1000.000,889.648
1737965908.392,593.750,448.730,-20.508,-889.648,-321.289
1737965908.396,999.512,999.512,841.797,325.684,-1000.000
1737965908.399,359.375,545.898,290.527,999.512,-494.629
1737965908.403,-979.492,-856.445,-773.926,585.938,864.746
1737965908.407,-1000.000,-1000.000,-1000.000,-775.879,999.512
1737965908.411,346.680,194.336,-258.789,-1000.000,-190.918
1737965908.415,999.512,999.512,778.809,-166.992,-1000.000
1737965908.417,626.953,699.219,452.637,999.512,-676.270
1737965908.421,-759.766,-666.992,-692.871,782.715,711.914
1737965908.425,-1000.000,-1000.000,-1000.000,-607.910,999.512
1737965908.429,74.707,-192.871,-498.047,-1000.000,47.363
1737965908.433,999.512,999.512,682.129,-581.543,-1000.000
1737965908.437,790.039,832.031,621.094,891.602,-798.340
1737965908.441,-556.152,-556.152,-629.883,896.973,574.707
1737965908.444,-1000.000,-1000.000,-1000.000,-586.426,999.512
1737965908.448,-391.113,-580.078,-622.559,-1000.000,617.676
1737965908.452,979.980,888.672,611.328,-741.211,-864.258
1737965908.456,862.793,897.949,701.172,761.230,-943.359
1737965908.460,-567.871,-587.402,-560.547,933.594,559.570
1737965908.461,-1000.000,-1000.000,-1000.000,-608.398,999.512
1737965908.465,-663.574,-750.488,-767.578,-1000.000,701.172
1737965908.469,833.984,720.703,433.594,-858.887,-785.156
1737965908.473,914.062,999.512,794.434,565.918,-986.328
1737965908.477,-597.656,-504.395,-309.570,999.512,538.086
1737965908.481,-1000.000,-1000.000,-1000.000,-425.781,999.512
1737965908.485,-795.898,-845.703,-876.953,-1000.000,805.664
1737965908.488,648.926,551.270,313.477,-841.797,-612.793
1737965908.492,999.512,999.512,855.957,533.691,-1000.000
1737965908.496,-425.781,-296.875,-163.086,999.512,343.262
1737965908.500,-1000.000,-1000.000,-982.422,-186.523,999.512
1737965908.504,-836.914,-833.008,-951.660,-1000.000,803.711
1737965908.506,525.879,517.090,143.066,-887.695,-554.688
1737965908.510,999.512,999.512,819.336,417.480,-1000.000
1737965908.514,-106.445,62.012,-18.555,999.512,7.812
1737965908.518,-1000.000,-1000.000,-898.926,257.324,999.512
1737965908.522,-836.914,-904.297,-1000.000,-985.840,862.793
1737965908.526,507.812,434.082,-105.469,-1000.000,-471.680
1737965908.530,999.512,999.512,824.219,237.305,-1000.000
1737965908.533,345.215,476.074,261.719,999.512,-351.074
1737965908.537,-977.539,-894.531,-773.926,574.219,933.594
1737965908.541,-993.652,-1000.000,-1000.000,-788.574,998.047
1737965908.545,365.723,266.602,-248.535,-1000.000,-302.246
1737965908.549,999.512,999.512,799.805,-115.234,-1000.000
1737965908.552,602.539,673.340,413.086,999.512,-633.789
1737965908.556,-800.781,-701.172,-733.887,759.766,722.168
1737965908.560,-1000.000,-1000.000,-1000.000,-624.512,999.512
1737965908.564,187.988,-63.965,-371.582,-1000.000,139.648
1737965908.568,999.512,999.512,726.074,-576.660,-1000.000
1737965908.572,735.352,809.570,554.199,893.066,-820.312
1737965908.576,-625.977,-558.105,-646.484,901.367,594.238
1737965908.579,-1000.000,-1000.000,-1000.000,-593.262,999.512
1737965908.583,-197.266,-478.516,-619.141,-1000.000,305.664
1737965908.587,999.512,941.895,573.242,-661.133,-1000.000
1737965908.591,833.496,878.906,701.660,775.391,-888.184
1737965908.595,-550.781,-576.660,-533.203,921.875,534.180
1737965908.596,-1000.000,-1000.000,-1000.000,-601.562,999.512
1737965908.600,-580.566,-705.566,-748.535,-1000.000,626.465
1737965908.604,897.461,778.809,480.469,-855.957,-844.727
1737965908.608,895.508,963.867,784.180,559.082,-974.609
1737965908.641,539.062,522.461,131.836,-909.668,-579.590
1737965908.645,999.512,999.512,825.195,395.508,-1000.000
1737965908.649,-236.816,-23.926,4.883,999.512,239.746
1737965908.653,-1000.000,-1000.000,-902.832,342.285,999.512
1737965908.657,-831.055,-869.629,-1000.000,-956.543,815.430
1737965908.661,511.230,476.562,-47.852,-1000.000,-496.582
1737965908.665,999.512,999.512,852.539,247.070,-1000.000
1737965908.668,156.738,386.719,189.941,999.512,-343.262
1737965908.672,-1000.000,-945.312,-840.332,621.094,938.965
1737965908.676,-920.898,-1000.000,-1000.000,-743.164,987.305
1737965908.680,431.641,314.941,-166.016,-1000.000,-326.660
1737965908.684,999.512,999.512,822.754,-142.578,-1000.000
1737965908.686,557.129,632.324,363.281,999.512,-641.113
1737965908.690,-853.516,-755.371,-750.000,808.594,758.301
1737965908.694,-1000.000,-1000.000,-1000.000,-570.801,999.512
1737965908.698,283.203,60.059,-384.766,-1000.000,-159.668
1737965908.702,999.512,999.512,719.238,-564.453,-1000.000
1737965908.706,723.633,785.156,554.688,899.902,-686.523
1737965908.710,-640.625,-569.824,-641.113,894.043,678.711
1737965908.713,-1000.000,-1000.000,-1000.000,-583.984,999.512
1737965908.717,-105.957,-378.418,-573.730,-1000.000,282.715
1737965908.721,999.512,981.934,651.367,-720.703,-1000.000
1737965908.725,821.289,862.305,701.660,777.832,-885.254
1737965908.729,-544.922,-567.383,-599.121,937.988,531.250
1737965908.746,-1000.000,-1000.000,-1000.000,-593.750,999.512
1737965908.750,-558.594,-666.016,-708.984,-1000.000,562.988
1737965908.754,906.738,820.801,509.277,-854.004,-896.973
1737965908.758,891.602,935.547,742.188,556.641,-946.777
1737965908.762,-584.473,-568.848,-510.254,999.512,541.016
1737965908.766,-1000.000,-1000.000,-1000.000,-369.141,999.512
1737965908.770,-732.910,-808.105,-800.293,-1000.000,789.062
1737965908.773,744.141,624.023,397.461,-841.309,-677.734
1737965908.777,990.723,999.512,817.871,531.738,-1000.000
1737965908.781,-516.602,-397.461,-150.879,999.512,503.906
1737965908.785,-1000.000,-1000.000,-960.938,-144.531,999.512
1737965908.789,-847.168,-840.332,-939.453,-1000.000,807.617
1737965908.791,543.457,530.762,240.234,-921.875,-573.242
1737965908.795,999.512,999.512,866.211,371.094,-1000.000
1737965908.799,-282.715,-131.348,-92.773,999.512,182.617
1737965908.803,-1000.000,-1000.000,-941.406,261.230,999.512
1737965908.807,-825.195,-832.031,-1000.000,-1000.000,795.898
1737965908.811,505.371,503.418,-3.906,-946.289,-524.414
1737965908.815,999.512,999.512,844.238,423.340,-1000.000
1737965908.818,211.426,409.180,112.793,999.512,-451.172
1737965908.822,-1000.000,-947.754,-858.398,491.211,917.480
1737965908.826,-906.250,-1000.000,-1000.000,-846.680,956.055
1737965908.830,471.680,372.070,-193.848,-1000.000,-434.082
1737965908.834,999.512,999.512,810.547,-37.109,-1000.000
1737965908.837,567.383,632.812,367.188,999.512,-650.879
1737965908.841,-844.727,-762.207,-751.953,671.387,747.559
1737965908.845,-1000.000,-1000.000,-1000.000,-708.496,999.512
1737965908.849,294.922,136.230,-296.387,-1000.000,-202.637
1737965908.853,999.512,999.512,812.500,-477.539,-1000.000
1737965908.857,420.898,481.445,169.922,942.871,-462.402
1737965908.861,-795.410,-706.543,-849.121,882.812,714.844
1737965908.864,-1000.000,-1000.000,-1000.000,-582.520,999.512
1737965908.868,-22.949,-332.031,-454.590,-1000.000,429.688
1737965908.872,999.512,999.512,693.848,-617.676,-997.559
1737965908.876,812.988,851.074,613.770,818.848,-889.648
1737965908.880,-544.434,-560.547,-601.074,912.109,563.477
1737965908.882,-1000.000,-1000.000,-1000.000,-599.121,999.512
1737965908.886,-390.625,-634.766,-693.848,-1000.000,514.160
1737965908.890,980.469,855.957,519.043,-854.492,-932.129
1737965908.894,862.305,908.203,737.793,557.129,-921.875
1737965908.898,-569.336,-594.727,-525.879,999.512,560.059
1737965908.902,-1000.000,-1000.000,-1000.000,-381.836,999.512
1737965908.906,-696.777,-790.039,-788.574,-1000.000,770.508
1737965908.909,788.086,666.992,458.496,-878.906,-690.430
1737965908.913,957.520,999.512,842.773,430.176,-1000.000
1737965908.917,-551.758,-474.121,-353.027,999.512,473.633
1737965908.921,-1000.000,-1000.000,-1000.000,50.293,999.512
1737965908.925,-842.285,-845.703,-881.836,-1000.000,810.547
1737965908.928,562.988,541.016,255.371,-1000.000,-596.680
1737965908.932,999.512,999.512,823.730,196.777,-1000.000
1737965908.936,-336.426,-244.141,-160.156,999.512,299.316
1737965908.940,-1000.000,-1000.000,-969.238,537.598,999.512
1737965908.944,-836.426,-832.520,-980.469,-810.059,817.383
1737965908.948,522.461,512.695,74.219,-1000.000,-575.684
1737965908.952,999.512,999.512,864.258,-190.918,-1000.000
1737965908.955,-35.645,151.855,165.039,999.512,188.477
1737965908.959,-1000.000,-1000.000,-846.680,750.977,999.512
1737965908.963,-845.215,-942.383,-1000.000,-653.809,867.188
1737965908.967,512.207,394.531,-112.305,-1000.000,-393.555
1737965908.971,999.512,999.512,859.863,-541.992,-1000.000
1737965908.973,344.238,520.508,356.445,912.109,-503.906
1737965908.977,-975.586,-860.352,-772.461,889.648,856.934
1737965908.981,-999.512,-1000.000,-1000.000,-584.473,999.512
1737965908.985,355.957,224.609,-272.949,-1000.000,-267.578
1737965908.989,999.512,999.512,797.363,-763.184,-1000.000
1737965908.993,615.234,694.336,451.172,737.793,-673.828
1737965908.997,-777.344,-670.410,-715.820,938.477,694.336
1737965909.000,-960.449,-1000.000,-1000.000,-609.375,999.512
1737965909.004,226.074,-150.391,-454.590,-1000.000,92.773
1737965909.008,999.512,999.512,665.039,-867.676,-1000.000
1737965909.012,801.270,830.078,604.492,587.891,-803.223
1737965909.016,-553.711,-555.176,-618.164,999.512,591.797
1737965909.017,-1000.000,-1000.000,-1000.000,-537.109,999.512
1737965909.021,-337.402,-556.641,-647.949,-1000.000,407.715
1737965909.025,999.023,902.344,581.055,-850.586,-984.375
1737965909.029,854.492,893.066,706.055,550.293,-903.809
1737965909.033,-563.477,-584.961,-570.312,999.512,548.828
1737965909.037,-1000.000,-1000.000,-1000.000,-330.078,999.512
1737965909.041,-663.086,-742.188,-714.355,-1000.000,773.438
1737965909.044,833.984,728.516,482.910,-861.816,-695.801
1737965909.048,914.062,998.535,780.273,506.836,-1000.000
1737965909.052,-597.656,-503.418,-364.258,999.512,498.047
1737965909.056,-1000.000,-1000.000,-1000.000,-158.691,999.512
1737965909.060,-795.898,-842.285,-865.234,-1000.000,812.500
1737965909.062,649.414,556.641,303.223,-927.246,-631.836
1737965909.066,999.512,999.512,837.402,371.094,-1000.000
1737965909.070,-429.199,-299.805,-95.215,999.512,433.105
1737965909.074,-1000.000,-1000.000,-950.684,161.621,999.512
1737965909.078,-837.891,-833.008,-977.051,-1000.000,800.293
1737965909.082,526.855,517.578,155.762,-1000.000,-549.316
1737965909.086,999.512,999.512,858.398,273.438,-1000.000
1737965909.089,-118.164,57.617,-11.719,999.512,-8.301
1737965909.093,-1000.000,-1000.000,-904.785,489.258,999.512
1737965909.097,-837.402,-889.160,-1000.000,-866.699,836.914
1737965909.101,509.277,461.426,-90.332,-1000.000,-510.742
1737965909.105,999.512,999.512,825.195,55.176,-1000.000
1737965909.121,309.082,451.660,199.219,999.512,-431.152
1737965909.125,-1000.000,-910.156,-831.055,667.480,905.762
1737965909.129,-963.867,-1000.000,-1000.000,-740.234,999.512
1737965909.133,423.828,295.410,-245.117,-1000.000,-338.867
1737965909.137,999.512,999.512,790.039,-57.129,-1000.000
1737965909.141,506.836,568.848,408.203,999.512,-555.176
1737965909.145,-842.285,-750.488,-736.328,793.945,812.500
1737965909.148,-1000.000,-1000.000,-1000.000,-583.496,999.512
1737965909.152,240.723,11.230,-403.809,-1000.000,-145.508
1737965909.156,999.512,999.512,730.957,-373.047,-1000.000
1737965909.160,741.211,803.711,555.176,985.840,-792.969
1737965909.164,-635.742,-559.082,-659.180,861.328,578.125
1737965909.166,-1000.000,-1000.000,-1000.000,-565.430,999.512
1737965909.170,-41.016,-357.910,-583.984,-1000.000,161.133
1737965909.174,999.512,990.234,602.051,-631.348,-1000.000
1737965909.178,819.824,859.863,684.082,858.887,-870.605
1737965909.182,-547.363,-564.453,-568.848,907.715,524.902
1737965909.186,-1000.000,-1000.000,-1000.000,-589.355,999.512
1737965909.190,-390.625,-608.398,-725.586,-1000.000,459.473
1737965909.193,980.469,844.238,472.656,-713.379,-956.543
1737965909.197,863.281,971.680,780.762,735.840,-918.457
1737965909.201,-566.895,-477.539,-357.910,999.512,544.434
1737965909.205,-1000.000,-1000.000,-1000.000,-463.379,999.512
1737965909.209,-615.723,-710.449,-842.285,-1000.000,547.852
1737965909.212,822.266,714.355,392.090,79.102,-858.887
1737965909.216,999.512,999.512,796.875,999.512,-1000.000
1737965909.220,-419.434,-313.965,-294.434,954.102,392.090
1737965909.224,-1000.000,-1000.000,-1000.000,-289.551,999.512
1737965909.228,-847.168,-848.633,-928.223,-1000.000,826.172
1737965909.232,553.223,541.992,229.492,-508.301,-596.191
1737965909.236,999.512,999.512,778.809,717.773,-1000.000
1737965909.239,-370.605,-203.125,-109.863,999.512,364.258
1737965909.243,-1000.000,-1000.000,-907.715,-134.277,999.512
1737965909.247,-846.680,-891.113,-1000.000,-1000.000,893.555
1737965909.251,529.297,439.941,-97.168,-840.332,-456.543
1737965909.255,999.512,999.512,811.523,516.602,-1000.000
1737965909.256,-90.332,65.430,209.961,999.512,291.504
1737965909.260,-1000.000,-1000.000,-821.289,145.508,999.512
1737965909.264,-952.148,-1000.000,-1000.000,-1000.000,958.984
1737965909.268,336.914,215.820,-222.168,-988.770,-174.805
1737965909.272,999.512,999.512,775.879,293.945,-1000.000
1737965909.276,199.707,335.449,238.281,999.512,-231.445
1737965909.280,-992.188,-904.785,-802.246,507.812,929.199
1737965909.283,-1000.000,-1000.000,-1000.000,-843.750,999.512
1737965909.287,148.438,-125.488,-364.746,-1000.000,159.180
1737965909.291,999.512,999.512,718.262,-46.387,-1000.000
1737965909.295,588.379,695.312,446.777,999.512,-684.082
1737965909.299,-772.949,-697.266,-699.219,692.383,733.887
1737965909.301,-1000.000,-1000.000,-1000.000,-685.547,999.512
1737965909.305,-211.914,-489.746,-623.535,-1000.000,307.129
1737965909.309,999.512,940.918,573.242,-512.695,-1000.000
1737965909.313,770.020,869.141,617.676,928.223,-836.914
1737965909.317,-633.789,-590.820,-640.625,883.789,595.215
1737965909.321,-1000.000,-1000.000,-1000.000,-579.102,999.512
1737965909.325,-582.520,-703.125,-721.680,-1000.000,645.020
1737965909.328,895.996,796.387,528.320,-709.473,-838.867
1737965909.332,895.508,924.316,711.914,784.180,-949.707
1737965909.336,-586.426,-603.027,-567.871,827.637,567.383
1737965909.340,-1000.000,-1000.000,-1000.000,-641.113,999.512
1737965909.344,-740.234,-834.473,-796.387,-1000.000,786.621
1737965909.347,763.672,628.906,392.090,-875.000,-687.012
1737965909.351,932.617,999.512,769.043,588.379,-1000.000
1737965909.355,-608.398,-530.273,-354.980,999.512,525.879
1737965909.359,-1000.000,-1000.000,-1000.000,-532.227,999.512
1737965909.363,-859.375,-850.098,-912.598,-1000.000,825.195
1737965909.367,566.895,548.828,224.121,-749.023,-623.535
1737965909.371,999.512,999.512,846.680,580.566,-1000.000
1737965909.374,-433.105,-313.477,-70.801,999.512,466.309
1737965909.378,-1000.000,-1000.000,-933.594,-297.363,999.512
1737965909.382,-844.727,-841.797,-1000.000,-1000.000,804.688
1737965909.386,538.086,504.883,-7.812,-855.957,-554.199
1737965909.390,999.512,999.512,809.570,466.797,-1000.000
1737965909.393,-227.539,32.715,40.039,999.512,60.547
1737965909.397,-1000.000,-1000.000,-883.789,121.582,999.512
1737965909.401,-841.309,-957.520,-1000.000,-1000.000,873.535
1737965909.405,498.535,356.445,-160.645,-987.793,-460.938
1737965909.409,999.512,999.512,812.012,287.109,-1000.000
1737965909.413,118.652,274.414,180.176,999.512,-181.641
1737965909.417,-1000.000,-956.543,-821.289,534.180,991.699
1737965909.420,-974.609,-1000.000,-1000.000,-832.031,979.004
1737965909.424,306.641,145.508,-337.891,-1000.000,-256.348
1737965909.428,999.512,999.512,770.020,13.672,-1000.000
1737965909.432,595.703,677.246,499.023,999.512,-618.164
1737965909.436,-789.062,-691.406,-702.148,725.098,754.883
1737965909.436,-1000.000,-1000.000,-1000.000,-642.090,999.512
1737965909.440,60.059,-217.773,-491.699,-1000.000,9.277
1737965909.444,999.512,999.512,663.086,-462.891,-1000.000
1737965909.448,743.652,829.590,598.145,949.219,-798.340
1737965909.452,-625.000,-565.918,-637.207,875.488,569.336
1737965909.456,-1000.000,-1000.000,-1000.000,-575.195,999.512
1737965909.460,-347.656,-575.684,-612.305,-1000.000,550.781
1737965909.463,995.117,890.137,559.082,-710.938,-905.273
1737965909.467,855.957,896.973,677.734,790.527,-933.105
1737965909.471,-564.453,-586.914,-524.414,926.270,554.199
1737965909.475,-1000.000,-1000.000,-1000.000,-605.957,999.512
1737965909.479,-663.086,-749.023,-784.668,-1000.000,597.656
1737965909.496,834.473,728.516,439.453,-859.375,-855.957
1737965909.500,914.062,985.840,806.152,592.773,-971.680
1737965909.504,-597.168,-528.320,-339.844,999.512,519.531
1737965909.508,-1000.000,-1000.000,-1000.000,-515.137,999.512
1737965909.512,-795.898,-844.238,-861.328,-1000.000,800.293
1737965909.516,649.902,560.547,361.328,-847.168,-640.625
1737965909.520,999.512,999.512,847.656,543.945,-1000.000
1737965909.523,-431.152,-325.684,-164.551,999.512,422.363
1737965909.527,-1000.000,-1000.000,-977.051,-283.691,999.512
1737965909.531,-845.215,-834.473,-922.363,-1000.000,817.383
1737965909.535,539.551,520.508,187.988,-854.004,-550.781
1737965909.539,999.512,999.512,839.355,472.168,-1000.000
1737965909.542,-236.816,7.812,26.367,999.512,123.047
1737965909.546,-1000.000,-1000.000,-877.930,124.512,999.512
1737965909.550,-831.055,-892.090,-1000.000,-1000.000,813.477
1737965909.554,511.719,445.801,-121.582,-981.934,-525.879
1737965909.558,999.512,999.512,837.402,301.758,-1000.000
1737965909.562,154.297,405.273,261.719,999.512,-339.844
1737965909.566,-1000.000,-929.199,-800.293,540.039,948.242
1737965909.569,-933.594,-1000.000,-1000.000,-840.820,964.844
1737965909.573,406.738,271.484,-222.656,-1000.000,-366.211
1737965909.577,999.512,999.512,832.520,107.422,-1000.000
1737965909.581,560.059,642.578,427.246,999.512,-636.230
1737965909.585,-838.379,-735.840,-721.680,732.422,762.207
1737965909.586,-1000.000,-1000.000,-1000.000,-634.277,999.512
1737965909.590,221.191,-30.762,-447.754,-1000.000,-172.852
1737965909.594,999.512,999.512,689.941,-290.039,-1000.000
1737965909.598,727.051,797.363,585.938,999.512,-743.164
1737965909.602,-636.230,-570.312,-631.836,848.633,624.512
1737965909.606,-1000.000,-1000.000,-1000.000,-558.105,999.512
1737965909.610,-160.645,-440.430,-618.164,-1000.000,225.586
1737965909.613,999.512,956.543,598.633,-609.375,-1000.000
1737965909.617,828.125,872.559,748.047,875.977,-839.844
1737965909.621,-547.852,-572.754,-527.832,902.832,575.195
1737965909.625,-1000.000,-1000.000,-1000.000,-590.820,999.512
1737965909.629,-580.566,-687.012,-724.121,-1000.000,569.336
1737965909.632,897.461,800.781,521.484,-764.648,-883.789
1737965909.636,895.508,944.824,779.785,684.082,-948.242
1737965909.640,-586.426,-565.430,-404.785,999.512,540.527
1737965909.644,-1000.000,-1000.000,-1000.000,-428.223,999.512
1737965909.678,-295.898,-115.723,-43.945,999.512,219.238
1737965909.682,-1000.000,-1000.000,-921.387,318.359,999.512
1737965909.686,-830.078,-854.004,-1000.000,-991.699,805.176
1737965909.690,512.695,488.281,-22.949,-978.027,-547.852
1737965909.694,999.512,999.512,854.004,385.742,-1000.000
1737965909.698,106.445,297.852,218.262,999.512,-141.113
1737965909.702,-1000.000,-987.305,-814.941,613.770,999.512
1737965909.705,-893.555,-995.605,-1000.000,-776.855,876.953
1737965909.709,458.984,342.285,-197.266,-1000.000,-470.703
1737965909.713,999.512,999.512,812.012,117.188,-1000.000
1737965909.717,526.855,603.516,416.016,999.512,-520.508
1737965909.721,-878.418,-788.086,-721.680,773.926,860.352
1737965909.721,-1000.000,-1000.000,-1000.000,-573.730,999.512
1737965909.725,287.598,115.234,-378.418,-1000.000,-328.125
1737965909.729,999.512,999.512,740.723,-351.562,-1000.000
1737965909.733,669.922,752.441,551.758,994.629,-704.102
1737965909.737,-713.379,-605.957,-658.691,856.934,667.480
1737965909.741,-1000.000,-1000.000,-1000.000,-565.430,999.512
1737965909.745,-1.465,-313.477,-533.691,-1000.000,61.035
1737965909.748,999.512,999.512,682.617,-686.523,-1000.000
1737965909.752,813.477,852.539,682.129,812.988,-840.820
1737965909.756,-544.434,-561.523,-583.008,920.410,558.105
1737965909.760,-1000.000,-1000.000,-1000.000,-600.586,999.512
1737965909.764,-390.625,-637.207,-706.055,-1000.000,284.180
1737965909.766,980.469,849.121,501.465,-808.594,-1000.000
1737965909.770,862.793,911.621,776.855,616.211,-890.625
1737965909.774,-567.871,-591.309,-366.699,999.512,537.598
1737965909.778,-1000.000,-1000.000,-1000.000,-371.582,999.512
1737965909.782,-658.203,-781.738,-813.965,-1000.000,543.945
1737965909.786,820.801,667.969,446.289,-836.914,-866.211
1737965909.790,954.102,999.512,875.488,524.902,-980.957
1737965909.793,-537.109,-446.777,-223.145,999.512,486.816
1737965909.797,-1000.000,-1000.000,-1000.000,-69.336,999.512
1737965909.801,-806.152,-843.750,-885.254,-1000.000,793.457
1737965909.805,610.840,537.598,343.262,-836.426,-613.770
1737965909.809,999.512,999.512,869.141,505.859,-1000.000
1737965909.812,-334.961,-203.613,-79.590,999.512,313.477
1737965909.816,-1000.000,-1000.000,-924.316,456.055,999.512
1737965909.820,-841.309,-840.332,-1000.000,-925.781,804.688
1737965909.824,528.809,519.043,-1.465,-1000.000,-568.848
1737965909.828,999.512,999.512,837.402,363.770,-1000.000
1737965909.832,-135.254,88.867,118.652,999.512,82.520
1737965909.836,-1000.000,-1000.000,-853.516,679.688,999.512
1737965909.839,-829.102,-927.246,-1000.000,-704.590,813.477
1737965909.843,504.395,396.484,-160.156,-1000.000,-513.184
1737965909.847,999.512,999.512,853.027,43.945,-1000.000
1737965909.851,344.238,531.250,403.320,999.512,-494.141
1737965909.855,-975.586,-852.051,-758.301,795.410,866.699
1737965909.872,-999.512,-1000.000,-1000.000,-543.945,999.512
1737965909.876,354.492,209.961,-282.227,-1000.000,-293.457
1737965909.880,999.512,999.512,780.273,-531.250,-1000.000
1737965909.884,603.027,694.824,491.211,919.434,-673.340
1737965909.888,-801.270,-673.340,-681.641,887.695,718.262
1737965909.892,-1000.000,-1000.000,-1000.000,-581.055,999.512
1737965909.896,191.895,-169.922,-499.023,-1000.000,-33.203
1737965909.899,999.512,999.512,648.438,-715.332,-1000.000
1737965909.903,770.996,829.102,632.812,775.879,-804.688
1737965909.907,-578.125,-555.664,-540.527,952.148,598.145
1737965909.911,-1000.000,-1000.000,-1000.000,-568.359,999.512
1737965909.915,-208.496,-552.246,-695.801,-1000.000,129.883
1737965909.917,999.512,902.344,561.035,-839.355,-1000.000
1737965909.921,834.473,892.578,772.949,574.707,-869.141
1737965909.925,-552.734,-584.961,-512.695,999.512,530.762
1737965909.929,-1000.000,-1000.000,-1000.000,-363.770,999.512
1737965909.933,-629.883,-743.164,-769.531,-1000.000,535.156
1737965909.937,859.863,732.422,465.820,-845.703,-854.004
1737965909.941,906.738,989.258,833.984,538.574,-964.844
1737965909.944,-594.727,-519.043,-292.480,999.512,514.648
1737965909.948,-1000.000,-1000.000,-1000.000,-199.707,999.512
1737965909.952,-795.898,-843.750,-879.395,-1000.000,619.141
1737965909.956,649.902,562.988,270.508,-864.746,-777.344
1737965909.960,999.512,999.512,831.543,490.234,-1000.000
1737965909.963,-431.152,-331.543,-70.801,999.512,412.109
1737965909.967,-1000.000,-1000.000,-930.664,11.230,999.512
1737965909.971,-845.215,-841.309,-997.070,-1000.000,778.320
1737965909.975,539.062,529.297,77.637,-946.777,-605.957
1737965909.979,999.512,999.512,858.887,364.746,-1000.000
1737965909.983,-236.816,-115.723,58.594,999.512,263.184
1737965909.987,-1000.000,-1000.000,-886.230,282.227,999.512
1737965909.990,-831.055,-889.160,-1000.000,-982.422,815.918
1737965909.994,511.230,417.969,-73.242,-1000.000,-497.559
1737965909.998,999.512,999.512,794.434,276.855,-1000.000
1737965910.002,155.273,343.750,297.852,999.512,-117.676
1737965910.006,-1000.000,-952.148,-759.277,610.352,999.512
1737965910.006,-925.781,-1000.000,-1000.000,-812.500,917.969
1737965910.010,421.875,250.977,-242.676,-1000.000,-386.230
1737965910.014,999.512,999.512,787.109,239.746,-1000.000
1737965910.018,525.879,615.723,485.352,999.512,-531.250
1737965910.022,-877.441,-774.414,-681.641,807.129,907.715
1737965910.026,-1000.000,-1000.000,-1000.000,-707.031,905.273
1737965910.030,281.738,46.387,-428.223,-983.398,-544.434
1737965910.033,999.512,999.512,745.117,582.520,-1000.000
1737965910.037,781.250,839.844,710.938,999.512,-713.379
1737965910.041,-720.215,-609.375,-555.664,854.980,812.500
1737965910.045,-1000.000,-1000.000,-1000.000,-702.637,837.402
1737965910.049,541.504,247.559,-489.746,-591.797,-701.660
1737965910.052,999.512,999.512,668.945,968.750,-1000.000
1737965910.056,842.285,910.156,801.758,942.383,-901.367
1737965910.060,-636.719,-535.645,-244.141,999.512,633.789
1737965910.064,-998.047,-1000.000,-1000.000,-185.059,650.879
1737965910.068,597.168,535.645,-640.137,-634.277,-886.719
1737965910.072,999.512,999.512,600.098,904.785,-1000.000
1737965910.076,934.570,951.660,793.457,991.211,-921.875
1737965910.079,-421.387,-246.582,-60.059,999.512,570.801
1737965910.083,-1000.000,-1000.000,-939.453,-278.809,943.359
1737965910.087,435.059,-9.766,-833.008,-1000.000,-656.738
1737965910.091,999.512,999.512,484.375,591.797,-1000.000
1737965910.095,874.023,963.867,876.953,999.512,-922.852
1737965910.096,-347.168,-258.789,-175.293,900.879,417.480
1737965910.100,-1000.000,-1000.000,-961.426,-279.785,999.512
1737965910.104,-864.746,-862.305,-977.051,-1000.000,-242.188
1737965910.108,585.449,568.848,32.227,-869.629,-1000.000
1737965910.112,999.512,999.512,763.672,590.332,-869.629
1737965910.116,-497.070,-399.902,-113.770,999.512,462.891
1737965910.120,-1000.000,-1000.000,-931.152,-579.590,999.512
1737965910.123,-916.504,-1000.000,-1000.000,-1000.000,864.258
1737965910.127,482.422,260.742,-235.352,-1000.000,-435.059
1737965910.131,999.512,999.512,722.656,-595.215,-1000.000
1737965910.135,-466.797,-357.422,50.781,797.363,513.184
1737965910.139,-1000.000,-1000.000,-878.418,-453.613,999.512
1737965910.142,-1000.000,-1000.000,-1000.000,-1000.000,999.512
1737965910.146,114.746,-296.387,-403.320,-1000.000,197.754
1737965910.150,999.512,999.512,680.176,-847.168,-1000.000
1737965910.154,-274.414,32.227,252.930,711.426,241.211
1737965910.158,-1000.000,-1000.000,-818.848,-166.016,999.512
1737965910.162,-1000.000,-1000.000,-1000.000,-1000.000,969.238
1737965910.166,-279.297,-600.098,-449.219,-1000.000,846.191
1737965910.169,999.512,983.398,647.461,-802.246,-795.898
1737965910.173,357.910,584.473,458.984,870.117,-469.238
1737965910.177,-935.059,-867.188,-686.523,443.848,999.512
1737965910.181,-1000.000,-1000.000,-1000.000,-968.262,969.238
1737965910.185,-444.336,-695.312,-658.691,-1000.000,61.523
1737965910.188,999.512,842.773,531.738,-681.641,-1000.000
1737965910.192,701.660,848.145,650.879,893.066,-705.566
1737965910.196,-754.883,-683.594,-558.105,774.902,846.680
1737965910.200,-1000.000,-1000.000,-1000.000,-750.488,956.543
1737965910.204,-684.082,-815.918,-772.461,-1000.000,-363.770
1737965910.208,825.684,677.246,467.285,-754.883,-1000.000
1737965910.212,901.855,949.707,746.582,752.441,-759.766
1737965910.215,-625.000,-611.816,-531.738,935.059,676.270
1737965910.219,-1000.000,-1000.000,-1000.000,-608.887,999.512
1737965910.223,-874.512,-874.023,-835.938,-1000.000,292.480
1737965910.227,603.516,604.492,276.367,-874.023,-768.555
1737965910.231,961.914,963.867,747.559,604.492,-937.988
1737965910.247,-614.258,-616.699,-324.219,962.891,598.145
1737965910.251,-1000.000,-1000.000,-1000.000,-614.258,955.566
1737965910.255,-874.023,-884.766,-941.406,-1000.000,164.062
1737965910.259,604.004,552.246,50.293,-874.023,-872.559
1737965910.263,962.402,999.512,786.133,604.004,-935.059
1737965910.267,-614.258,-522.461,32.227,963.379,563.477
1737965910.271,-1000.000,-1000.000,-884.277,-615.723,999.512
1737965910.274,-859.375,-949.707,-1000.000,-1000.000,61.523
1737965910.278,566.895,360.840,-100.098,-869.141,-1000.000
1737965910.282,999.512,999.512,813.477,533.203,-956.543
1737965910.286,-447.754,-298.340,104.980,999.512,437.988
1737965910.290,-1000.000,-1000.000,-872.559,-383.789,999.512
1737965910.293,-941.895,-1000.000,-1000.000,-1000.000,464.355
1737965910.297,344.238,113.770,-204.590,-931.641,-430.176
1737965910.301,999.512,999.512,767.578,360.352,-1000.000
1737965910.305,-144.043,124.512,307.129,999.512,111.816
1737965910.309,-1000.000,-988.770,-769.531,-76.660,999.512
1737965910.313,-917.480,-1000.000,-1000.000,-1000.000,623.047
1737965910.317,163.574,-245.605,-390.625,-995.117,-655.762
1737965910.320,999.512,999.512,702.637,209.473,-1000.000
1737965910.324,323.730,536.621,520.996,999.512,-246.582
1737965910.328,-922.363,-837.891,-622.070,358.398,999.512
1737965910.332,-1000.000,-1000.000,-1000.000,-925.293,707.031
1737965910.336,-241.699,-579.102,-599.609,-1000.000,-683.594
1737965910.337,999.512,925.293,592.285,27.344,-1000.000
1737965910.341,622.559,796.875,620.605,999.512,-639.160
1737965910.345,-780.762,-700.195,-613.281,654.785,846.680
1737965910.349,-1000.000,-1000.000,-1000.000,-739.746,905.762
1737965910.353,-593.750,-737.305,-717.773,-1000.000,-574.707
1737965910.357,902.832,765.137,501.953,-188.477,-1000.000
1737965910.361,871.094,928.223,734.863,999.512,-772.949
1737965910.364,-618.164,-608.398,-490.723,844.238,727.539
1737965910.368,-1000.000,-1000.000,-1000.000,-562.012,937.988
1737965910.372,-740.723,-843.750,-788.086,-1000.000,-604.492
1737965910.376,762.695,642.090,407.715,-325.684,-1000.000
1737965910.380,932.617,956.055,811.035,999.512,-860.352
1737965910.382,-607.910,-612.793,-166.016,857.910,616.211
1737965910.386,-1000.000,-1000.000,-964.844,-563.965,973.145
1737965910.390,-868.164,-861.328,-928.711,-1000.000,-593.750
1737965910.394,608.398,572.266,213.867,-499.023,-1000.000
1737965910.398,968.262,999.512,816.895,914.062,-864.746
1737965910.402,-603.027,-458.008,-77.637,934.570,551.270
1737965910.406,-1000.000,-1000.000,-950.195,-496.582,999.512
1737965910.409,-843.750,-857.910,-963.867,-1000.000,-338.867
1737965910.413,557.129,506.836,112.305,-618.652,-1000.000
1737965910.417,898.926,999.512,734.375,797.363,-846.680
1737965910.421,-443.359,-241.211,59.570,999.512,430.176
1737965910.425,-1000.000,-1000.000,-837.402,-306.152,999.512
1737965910.427,-850.586,-940.918,-1000.000,-1000.000,-225.098
1737965910.431,526.367,335.449,-159.180,-689.941,-1000.000
1737965910.435,999.512,999.512,826.660,676.270,-986.816
1737965910.439,-56.641,166.992,342.285,999.512,233.398
1737965910.443,-1000.000,-996.582,-765.137,102.051,999.512
1737965910.447,-850.586,-990.723,-1000.000,-1000.000,65.430
1737965910.451,365.234,124.512,-268.066,-816.895,-972.656
1737965910.454,999.512,999.512,793.457,562.500,-1000.000
1737965910.458,336.914,540.039,476.562,999.512,-399.902
1737965910.462,-948.730,-820.801,-702.148,544.434,999.512
1737965910.466,-1000.000,-1000.000,-1000.000,-926.270,507.324
1737965910.470,148.438,-183.105,-430.664,-827.637,-845.703
1737965910.473,999.512,999.512,667.480,590.332,-1000.000
1737965910.477,587.891,742.188,579.102,999.512,-667.480
1737965910.481,-763.672,-655.762,-613.770,740.723,876.465
1737965910.485,-1000.000,-1000.000,-1000.000,-771.973,766.113
1737965910.489,-308.105,-611.328,-674.316,-969.727,-729.980
1737965910.493,999.512,865.723,525.879,578.613,-1000.000
1737965910.497,823.242,900.879,761.719,999.512,-690.918
1737965910.500,-592.285,-595.215,-354.980,843.262,820.312
1737965910.504,-1000.000,-1000.000,-1000.000,-635.254,896.973
1737965910.508,-638.672,-779.785,-794.434,-994.141,-629.883
1737965910.512,853.027,715.820,430.664,583.008,-1000.000
1737965910.516,908.203,941.895,769.531,999.512,-858.398
1737965910.516,-595.215,-609.375,-341.797,834.961,619.629
1737965910.520,-1000.000,-1000.000,-1000.000,-614.258,967.285
1737965910.524,-803.711,-857.910,-868.652,-1000.000,-598.145
1737965910.528,694.336,589.355,274.902,489.746,-1000.000
1737965910.532,946.777,999.512,814.453,999.512,-845.215
1737965910.536,-611.816,-496.094,-119.629,889.648,537.598
1737965910.540,-1000.000,-1000.000,-948.730,-468.750,999.512
1737965910.543,-859.375,-847.656,-975.586,-1000.000,-241.211
1737965910.547,566.895,544.434,59.082,322.754,-1000.000
1737965910.551,999.512,999.512,818.848,999.512,-894.043
1737965910.555,-433.105,-283.691,58.105,970.215,518.555
1737965910.559,-1000.000,-1000.000,-878.906,-213.867,999.512
1737965910.562,-841.797,-897.949,-1000.000,-1000.000,-328.125
1737965910.566,533.691,406.250,-123.535,2.930,-1000.000
1737965910.570,999.512,999.512,823.730,998.047,-991.211
1737965910.574,-193.848,84.473,249.512,999.512,191.895
1737965910.578,-1000.000,-1000.000,-798.340,205.566,999.512
1737965910.582,-901.367,-1000.000,-1000.000,-1000.000,42.969
1737965910.586,388.672,197.266,-254.395,-440.918,-997.559
1737965910.589,999.512,999.512,802.734,866.699,-1000.000
1737965910.593,275.879,463.379,441.895,999.512,-239.258
1737965910.597,-969.727,-852.539,-701.660,589.355,999.512
1737965910.601,-1000.000,-1000.000,-1000.000,-976.074,552.734
1737965910.605,186.035,-158.203,-476.074,-749.512,-821.777
1737965910.622,999.512,999.512,668.457,755.371,-1000.000
1737965910.626,582.031,710.938,604.004,999.512,-530.762
1737965910.630,-785.156,-701.172,-638.672,724.609,955.566
1737965910.634,-1000.000,-1000.000,-1000.000,-788.086,674.805
1737965910.638,-112.793,-437.500,-539.551,-838.379,-770.020
1737965910.642,999.512,945.801,616.699,648.926,-1000.000
1737965910.646,753.418,860.840,683.594,999.512,-707.031
1737965910.649,-625.488,-591.309,-549.316,851.562,802.734
1737965910.653,-1000.000,-1000.000,-1000.000,-637.207,889.160
1737965910.657,-582.520,-747.559,-694.824,-994.141,-412.598
1737965910.661,895.996,751.465,506.348,583.008,-998.047
1737965910.665,895.996,934.570,759.766,999.512,-883.301
1737965910.666,-587.402,-606.934,-383.301,843.262,656.250
1737965910.670,-1000.000,-1000.000,-1000.000,-635.254,961.914
1737965910.674,-746.094,-843.750,-858.887,-1000.000,-630.859
1737965910.678,751.953,617.188,299.316,600.586,-1000.000
1737965910.712,-844.727,-879.883,-1000.000,-1000.000,-248.047
1737965910.716,537.598,448.242,-98.633,220.703,-1000.000
1737965910.720,999.512,999.512,810.059,999.512,-987.305
1737965910.724,-249.512,-36.133,194.336,999.512,283.203
1737965910.728,-1000.000,-1000.000,-833.008,87.891,999.512
1737965910.732,-781.738,-882.324,-1000.000,-1000.000,-78.613
1737965910.736,465.820,290.527,-227.539,-241.211,-1000.000
1737965910.739,999.512,999.512,795.898,932.617,-1000.000
1737965910.743,148.438,385.742,471.680,999.512,177.246
1737965910.747,-1000.000,-907.227,-703.613,506.348,999.512
1737965910.751,-1000.000,-1000.000,-1000.000,-1000.000,209.473
1737965910.755,241.211,-36.133,-406.738,-667.969,-915.039
1737965910.758,999.512,999.512,724.609,799.805,-1000.000
1737965910.762,510.742,648.438,521.973,999.512,-561.523
1737965910.766,-847.656,-731.445,-675.781,700.195,957.031
1737965910.770,-1000.000,-1000.000,-1000.000,-841.309,660.645
1737965910.774,-21.484,-431.152,-603.027,-882.324,-767.090
1737965910.778,999.512,967.773,591.309,668.945,-1000.000
1737965910.782,713.379,847.168,677.734,999.512,-709.473
1737965910.785,-666.992,-601.074,-570.801,833.984,830.078
1737965910.789,-1000.000,-1000.000,-1000.000,-649.414,813.477
1737965910.793,-395.020,-687.500,-737.793,-991.211,-703.125
1737965910.797,979.004,809.082,481.934,582.520,-1000.000
1737965910.801,862.793,920.898,770.508,999.512,-759.766
1737965910.802,-569.336,-601.074,-429.199,842.773,747.559
1737965910.806,-1000.000,-1000.000,-1000.000,-635.254,924.805
1737965910.810,-692.871,-828.125,-814.941,-993.652,-623.047
1737965910.814,806.641,649.902,399.902,583.496,-1000.000
1737965910.818,921.387,977.051,810.547,999.512,-859.863
1737965910.822,-604.004,-575.684,-245.117,831.055,572.266
1737965910.826,-1000.000,-1000.000,-1000.000,-605.469,999.512
1737965910.829,-854.004,-856.445,-872.070,-1000.000,-390.625
1737965910.833,602.539,562.012,231.934,454.102,-1000.000
1737965910.837,999.512,999.512,806.152,999.512,-899.414
1737965910.841,-525.879,-397.949,-48.828,932.617,554.199
1737965910.845,-1000.000,-1000.000,-911.621,-359.863,999.512
1737965910.847,-851.562,-858.398,-1000.000,-1000.000,-496.582
1737965910.851,551.758,500.000,-73.242,249.023,-1000.000
1737965910.855,999.512,999.512,808.594,999.512,-954.590
1737965910.859,-336.426,-129.883,132.324,991.699,322.754
1737965910.863,-1000.000,-1000.000,-855.469,-84.961,999.512
1737965910.867,-832.520,-946.289,-1000.000,-1000.000,-181.152
1737965910.871,517.090,320.801,-166.016,-156.738,-1000.000
1737965910.874,999.512,999.512,834.961,950.195,-1000.000
1737965910.878,12.207,270.020,315.918,999.512,8.301
1737965910.882,-1000.000,-955.566,-770.508,375.977,999.512
1737965910.886,-962.891,-1000.000,-1000.000,-1000.000,268.066
1737965910.890,308.594,59.082,-370.605,-586.914,-906.250
1737965910.892,999.512,999.512,723.633,826.660,-1000.000
1737965910.896,454.102,585.938,499.023,999.512,-440.430
1737965910.900,-883.789,-776.367,-669.922,660.645,999.512
1737965910.904,-1000.000,-1000.000,-1000.000,-901.367,437.988
1737965910.908,87.891,-325.195,-551.758,-811.035,-904.785
1737965910.912,999.512,999.512,637.695,727.539,-1000.000
1737965910.916,667.480,800.293,690.430,999.512,-518.066
1737965910.919,-698.730,-627.930,-563.965,793.457,953.613
1737965910.923,-1000.000,-1000.000,-1000.000,-706.055,803.711
1737965910.927,-347.656,-633.301,-686.523,-981.934,-671.875
1737965910.931,995.605,848.633,555.664,581.543,-1000.000
1737965910.935,854.980,909.180,721.191,999.512,-799.316
1737965910.938,-563.965,-594.727,-530.762,843.262,696.777
1737965910.942,-1000.000,-1000.000,-1000.000,-635.254,942.871
1737965910.946,-663.574,-800.781,-792.480,-994.141,-612.305
1737965910.950,833.984,692.383,396.484,583.008,-1000.000
1737965910.954,914.062,947.754,784.668,999.512,-860.352
1737965910.958,-597.168,-609.863,-290.039,838.379,619.629
1737965910.962,-1000.000,-1000.000,-1000.000,-622.070,962.402
1737965910.965,-810.547,-862.305,-897.461,-1000.000,-608.887
1737965910.969,686.523,574.707,229.004,534.668,-1000.000
1737965910.973,948.242,999.512,823.730,999.512,-866.211
1737965910.977,-612.305,-468.262,-115.234,920.410,584.473
1737965910.981,-1000.000,-1000.000,-952.637,-416.016,999.512
1737965910.997,-857.910,-855.469,-991.211,-1000.000,-528.809
1737965911.001,563.477,526.855,40.527,351.562,-1000.000
1737965911.005,999.512,999.512,824.707,999.512,-898.438
1737965911.009,-413.574,-254.883,39.551,979.980,364.258
1737965911.013,-1000.000,-1000.000,-879.395,-168.457,999.512
1737965911.017,-837.891,-923.340,-1000.000,-1000.000,166.016
1737965911.021,527.344,357.910,-141.602,-42.480,-998.047
1737965911.024,999.512,999.512,801.270,986.816,-1000.000
1737965911.028,-125.488,115.234,272.461,999.512,215.332
1737965911.032,-1000.000,-1000.000,-782.227,233.398,999.512
1737965911.036,-936.523,-1000.000,-1000.000,-1000.000,13.672
1737965911.040,336.426,130.371,-337.402,-538.574,-1000.000
1737965911.041,999.512,999.512,726.562,824.219,-1000.000
1737965911.045,316.895,493.652,507.812,999.512,109.375
1737965911.049,-951.660,-836.914,-686.035,583.496,999.512
1737965911.053,-1000.000,-1000.000,-1000.000,-963.867,205.078
1737965911.057,157.227,-229.980,-500.000,-785.645,-924.805
1737965911.061,999.512,999.512,629.395,724.609,-1000.000
1737965911.065,588.379,725.586,595.703,999.512,-609.375
1737965911.068,-772.949,-688.477,-623.047,754.395,900.879
1737965911.072,-1000.000,-1000.000,-1000.000,-752.441,867.188
1737965911.076,-211.914,-570.312,-641.113,-968.262,-593.750
1737965911.080,999.512,892.578,526.367,584.961,-1000.000
1737965911.084,782.715,900.879,689.453,999.512,-756.836
1737965911.086,-645.508,-608.398,-528.320,831.055,769.043
1737965911.090,-1000.000,-1000.000,-1000.000,-643.555,865.234
1737965911.094,-293.457,-462.402,-521.484,-709.961,-682.129
1737965911.098,999.512,870.605,556.641,713.379,-1000.000
1737965911.102,844.238,884.277,749.023,999.512,-848.145
1737965911.106,-563.965,-583.984,-327.148,765.625,641.113
1737965911.110,-1000.000,-1000.000,-1000.000,-673.828,951.172
1737965911.113,-755.859,-854.980,-852.539,-988.770,-619.141
1737965911.117,746.094,604.004,374.512,568.359,-1000.000
1737965911.121,936.035,999.512,841.309,999.512,-853.516
1737965911.125,-609.375,-531.738,-177.734,884.766,555.664
1737965911.129,-1000.000,-1000.000,-958.984,-499.023,999.512
1737965911.131,-860.840,-851.074,-965.332,-1000.000,-355.469
1737965911.135,570.312,551.270,48.828,393.066,-1000.000
1737965911.139,999.512,999.512,806.152,999.512,-919.434
1737965911.143,-463.379,-345.215,12.207,957.031,480.957
1737965911.147,-1000.000,-1000.000,-908.203,-269.043,999.512
1737965911.151,-467.773,-511.230,-827.148,-910.645,-395.508
1737965911.155,718.750,613.770,-14.160,282.715,-1000.000
1737965911.158,999.512,999.512,786.621,970.703,-923.340
1737965911.162,-213.379,4.395,365.234,999.512,409.180
1737965911.166,-1000.000,-1000.000,-768.066,140.137,999.512
1737965911.170,-887.207,-991.699,-1000.000,-1000.000,-221.191
1737965911.174,422.852,234.375,-248.047,-326.660,-1000.000
1737965911.176,999.512,999.512,771.973,907.715,-1000.000
1737965911.180,140.625,374.023,400.391,999.512,-83.008
1737965911.184,-1000.000,-899.414,-724.121,553.223,999.512
1737965911.188,-1000.000,-1000.000,-1000.000,-1000.000,228.516
1737965911.192,241.211,-109.375,-460.938,-729.004,-952.637
1737965911.196,999.512,999.512,668.945,773.926,-1000.000
1737965911.200,506.348,649.902,567.383,999.512,-458.496
1737965911.203,-841.797,-739.746,-586.426,624.512,999.512
1737965911.207,-1000.000,-1000.000,-1000.000,-843.750,552.734
1737965911.211,-95.703,-496.582,-634.277,-891.113,-829.102
1737965911.215,999.512,937.012,585.938,643.066,-1000.000
1737965911.219,703.613,855.469,714.844,999.512,-609.375
1737965911.221,-683.594,-610.840,-552.246,844.727,910.645
1737965911.225,-1000.000,-1000.000,-1000.000,-634.277,761.719
1737965911.229,-512.207,-714.844,-723.145,-994.141,-728.027
1737965911.233,927.734,783.203,461.914,583.008,-1000.000
1737965911.237,882.812,927.246,754.395,999.512,-828.613
1737965911.241,-580.078,-603.516,-374.512,843.262,653.320
1737965911.245,-1000.000,-1000.000,-1000.000,-635.254,979.492
1737965911.248,-728.516,-839.844,-811.523,-995.117,-561.035
1737965911.252,773.926,635.742,337.402,588.379,-1000.000
1737965911.256,929.688,978.516,793.457,999.512,-874.512
1737965911.260,-607.910,-577.637,-188.965,872.070,604.004
1737965911.264,-1000.000,-1000.000,-972.168,-539.062,966.797
1737965911.266,-867.188,-856.934,-950.195,-1000.000,-612.793
1737965911.270,584.961,562.988,125.000,453.125,-1000.000
1737965911.274,999.512,999.512,822.266,999.512,-888.672
1737965911.278,-525.879,-405.273,-32.715,961.914,521.973
1737965911.282,-1000.000,-1000.000,-921.387,-294.922,999.512
1737965911.286,-851.562,-872.559,-1000.000,-1000.000,-435.059
1737965911.290,552.246,476.074,-6.348,262.207,-1000.000
1737965911.293,999.512,999.512,835.449,999.512,-950.684
1737965911.297,-336.426,-132.324,158.203,999.512,336.914
1737965911.301,-1000.000,-1000.000,-832.031,41.016,999.512
1737965911.305,-829.590,-956.055,-1000.000,-1000.000,-172.852
1737965911.309,512.695,293.945,-231.445,-227.051,-1000.000
1737965911.312,999.512,999.512,791.504,937.012,-1000.000
1737965911.316,63.965,295.898,398.438,999.512,121.094
1737965911.320,-1000.000,-943.359,-706.543,419.434,999.512
1737965911.324,-973.633,-1000.000,-1000.000,-1000.000,-51.270
1737965911.328,302.734,30.273,-416.504,-650.391,-1000.000
1737965911.332,999.512,999.512,699.707,793.457,-1000.000
1737965911.336,470.215,594.238,551.758,999.512,-424.805
1737965911.339,-870.605,-770.996,-657.715,670.410,999.512
1737965911.343,-1000.000,-1000.000,-1000.000,-873.047,317.383
1737965911.347,41.016,-367.188,-551.270,-863.281,-946.289
1737965911.351,999.512,999.512,618.164,678.711,-1000.000
1737965911.355,673.340,812.012,626.465,999.512,-720.215
1737965911.371,-702.148,-625.488,-587.402,812.500,864.746
1737965911.375,-1000.000,-1000.000,-1000.000,-677.734,721.191
1737965911.379,-348.145,-641.602,-711.914,-986.816,-785.645
1737965911.383,995.605,842.285,486.328,582.031,-1000.000
1737965911.387,854.980,911.133,764.160,999.512,-800.781
1737965911.391,-563.477,-595.215,-318.359,842.285,716.309
1737965911.395,-1000.000,-1000.000,-1000.000,-633.789,907.227
1737965911.398,-650.879,-796.387,-834.961,-998.047,-651.855
1737965911.402,836.426,683.594,410.645,576.660,-1000.000
1737965911.406,812.988,856.445,752.930,999.512,-863.281
1737965911.410,-630.859,-631.836,-289.062,827.637,621.582
1737965911.414,-1000.000,-1000.000,-1000.000,-597.656,952.637
1737965911.416,-814.941,-866.211,-885.742,-1000.000,-625.977
1737965911.420,679.688,574.219,296.387,409.180,-1000.000
1737965911.424,986.328,999.512,820.312,999.512,-880.371
1737965911.428,-577.637,-449.219,-129.883,899.414,556.152
1737965911.432,-1000.000,-1000.000,-943.848,-381.348,915.039
1737965911.436,-656.738,-655.762,-911.621,-1000.000,-579.590
1737965911.440,629.883,599.609,86.426,83.496,-1000.000
1737965911.443,999.512,999.512,829.590,999.512,-951.172
1737965911.447,-339.844,-191.406,106.934,988.770,427.246
1737965911.451,-1000.000,-1000.000,-853.027,-160.156,999.512
1737965911.455,-835.449,-923.340,-1000.000,-1000.000,-441.406
1737965911.459,521.973,359.375,-189.941,-494.141,-1000.000
1737965911.461,999.512,999.512,819.824,821.289,-957.520
1737965911.465,-49.316,167.969,385.254,999.512,318.848
1737965911.469,-1000.000,-1000.000,-765.137,195.312,999.512
1737965911.473,-942.871,-1000.000,-1000.000,-1000.000,-163.086
1737965911.477,345.215,118.652,-325.195,-727.051,-1000.000
1737965911.481,999.512,999.512,746.094,681.152,-1000.000
1737965911.485,329.590,514.648,476.562,999.512,-278.809
1737965911.488,-947.266,-821.777,-687.500,579.102,999.512
1737965911.492,-1000.000,-1000.000,-1000.000,-914.062,664.551
1737965911.496,158.691,-276.855,-522.949,-917.969,-723.145
1737965911.500,999.512,999.512,618.652,578.125,-1000.000
1737965911.504,584.961,745.605,604.980,999.512,-589.355
1737965911.506,-769.043,-676.758,-558.105,755.859,936.035
1737965911.510,-1000.000,-1000.000,-1000.000,-744.141,554.199
1737965911.514,-271.973,-617.676,-701.172,-987.793,-865.723
1737965911.518,999.512,861.816,513.672,591.797,-1000.000
1737965911.522,778.320,898.926,694.824,999.512,-774.414
1737965911.526,-639.648,-601.074,-539.062,552.734,760.742
1737965911.530,-1000.000,-1000.000,-1000.000,-755.859,893.066
1737965911.533,-646.973,-792.969,-769.043,-953.125,-616.699
1737965911.537,846.680,701.172,444.336,542.480,-1000.000
1737965911.541,910.156,944.824,773.438,999.512,-860.352
1737965911.545,-596.191,-610.352,-345.703,830.078,635.742
1737965911.549,-1000.000,-1000.000,-1000.000,-602.539,947.754
1737965911.551,-810.547,-860.840,-889.648,-1000.000,-626.465
1737965911.555,686.035,590.820,223.633,428.223,-1000.000
1737965911.559,953.613,999.512,808.594,999.512,-870.117
1737965911.563,-618.652,-521.484,-84.961,866.211,592.773
1737965911.567,-1000.000,-1000.000,-929.688,-471.680,996.094
1737965911.571,-759.766,-750.977,-951.660,-1000.000,-569.336
1737965911.575,601.074,579.590,64.453,279.297,-1000.000
1737965911.578,999.512,999.512,838.867,999.512,-915.039
1737965911.582,-425.293,-304.199,43.945,976.562,464.844
1737965911.586,-1000.000,-1000.000,-898.438,-229.004,999.512
1737965911.590,-845.215,-901.855,-1000.000,-1000.000,-398.438
1737965911.594,539.062,399.414,-96.680,-187.988,-1000.000
1737965911.597,999.512,999.512,810.547,943.848,-992.676
1737965911.601,-244.141,40.527,253.906,999.512,245.117
1737965911.605,-1000.000,-1000.000,-784.668,158.203,999.512
1737965911.609,-885.742,-1000.000,-1000.000,-1000.000,-214.844
1737965911.613,417.480,191.406,-296.387,-648.438,-1000.000
1737965911.617,999.512,999.512,699.219,742.676,-967.285
1737965911.621,187.988,437.500,426.270,999.512,-45.410
1737965911.624,-1000.000,-866.699,-650.879,527.832,999.512
1737965911.628,-1000.000,-1000.000,-1000.000,-951.660,14.648
1737965911.632,212.891,-156.738,-496.094,-889.648,-1000.000
1737965911.636,999.512,999.512,654.297,592.285,-1000.000
1737965911.640,559.570,691.406,567.871,999.512,-609.375
1737965911.641,-796.875,-708.984,-637.207,709.961,967.285
1737965911.645,-1000.000,-1000.000,-1000.000,-794.434,442.383
1737965911.649,-146.973,-523.926,-629.395,-964.355,-922.363
1737965911.653,999.512,918.945,550.781,577.148,-1000.000
1737965911.657,761.719,872.070,690.430,999.512,-731.934
1737965911.661,-630.371,-600.098,-532.227,839.844,800.293
1737965911.665,-1000.000,-1000.000,-1000.000,-625.977,915.527
1737965911.668,-544.434,-728.027,-741.699,-1000.000,-612.793
1737965911.672,912.598,770.508,441.895,538.574,-1000.000
1737965911.676,889.160,930.176,757.812,999.512,-833.008
1737965911.680,-583.008,-604.980,-343.262,824.219,664.062
1737965911.684,-1000.000,-1000.000,-1000.000,-590.820,926.270
1737965911.686,-740.234,-845.703,-867.676,-1000.000,-644.043
1737965911.690,763.184,621.094,301.758,355.469,-1000.000
1737965911.694,947.754,999.512,822.754,999.512,-874.512
1737965911.698,-620.605,-564.453,-212.891,832.520,602.539
1737965911.746,999.512,999.512,797.852,915.039,-983.887
1737965911.750,-261.719,-49.316,217.773,999.512,354.492
1737965911.754,-1000.000,-1000.000,-812.500,14.648,999.512
1737965911.758,-855.469,-975.098,-1000.000,-1000.000,-345.215
1737965911.762,469.727,268.066,-247.070,-631.836,-1000.000
1737965911.766,999.512,999.512,797.363,743.164,-1000.000
1737965911.770,142.578,358.398,401.855,999.512,59.082
1737965911.773,-1000.000,-914.551,-737.305,378.906,999.512
1737965911.777,-1000.000,-1000.000,-1000.000,-1000.000,-27.832
1737965911.781,265.137,-16.602,-305.664,-795.898,-870.605
1737965911.785,999.512,999.512,773.926,657.715,-1000.000
1737965911.789,512.207,636.230,516.113,999.512,-568.848
1737965911.791,-850.098,-743.164,-645.996,659.180,999.512
1737965911.795,-1000.000,-1000.000,-1000.000,-842.773,387.695
1737965911.799,8.789,-395.508,-631.348,-951.660,-940.918
1737965911.803,999.512,982.910,553.223,571.289,-1000.000
1737965911.807,678.711,833.984,668.945,999.512,-716.797
1737965911.811,-700.684,-606.934,-559.570,814.453,860.352
1737965911.815,-1000.000,-1000.000,-1000.000,-662.598,653.320
1737965911.818,-374.023,-658.691,-733.887,-1000.000,-816.895
1737965911.822,986.328,830.078,496.582,551.758,-1000.000
1737965911.826,859.375,914.551,801.758,999.512,-846.680
1737965911.830,-565.918,-597.656,-417.969,824.219,675.293
1737965911.834,-1000.000,-1000.000,-1000.000,-590.332,906.250
1737965911.836,-663.574,-811.035,-780.273,-1000.000,-665.039
1737965911.840,833.496,670.410,396.484,351.074,-1000.000
1737965911.844,919.434,975.098,796.875,999.512,-876.953
1737965911.848,-603.516,-586.426,-258.789,806.641,604.980
1737965911.852,-1000.000,-1000.000,-1000.000,-561.523,955.566
1737965911.856,-704.102,-757.812,-860.840,-1000.000,-624.512
1737965911.860,702.148,597.656,183.594,131.348,-1000.000
1737965911.863,988.770,999.512,818.848,999.512,-873.535
1737965911.867,-516.113,-399.902,66.406,915.039,580.078
1737965911.871,-1000.000,-1000.000,-870.605,-361.816,893.066
1737965911.875,-851.562,-857.910,-1000.000,-1000.000,-623.535
1737965911.879,551.758,513.672,-44.922,-279.297,-1000.000
1737965911.882,999.512,999.512,825.684,938.477,-974.121
1737965911.886,-336.426,-210.938,20.996,866.211,384.277
1737965911.890,-1000.000,-1000.000,-896.484,-206.055,999.512
1737965911.894,-836.426,-926.270,-1000.000,-1000.000,-473.145
1737965911.898,522.461,335.449,-204.590,-610.352,-1000.000
1737965911.902,999.512,999.512,798.340,760.254,-993.652
1737965911.906,-50.781,232.910,346.191,999.512,103.516
1737965911.909,-1000.000,-970.215,-757.812,298.828,999.512
1737965911.913,-950.195,-1000.000,-1000.000,-1000.000,142.090
1737965911.917,331.055,66.406,-393.555,-771.973,-977.539
1737965911.921,999.512,999.512,708.984,662.598,-1000.000
1737965911.925,323.242,544.434,498.047,999.512,-219.727
1737965911.926,-936.035,-801.270,-687.012,640.625,999.512
1737965911.930,-1000.000,-1000.000,-1000.000,-876.953,202.637
1737965911.934,49.805,-363.770,-562.500,-899.414,-965.332
1737965911.938,999.512,999.512,588.867,625.488,-1000.000
1737965911.942,607.910,778.320,633.301,999.512,-639.648
1737965911.946,-754.883,-662.109,-584.961,792.480,910.645
1737965911.950,-1000.000,-1000.000,-1000.000,-702.637,744.629
1737965911.953,-384.277,-657.227,-635.742,-982.422,-623.047
1737965911.957,993.164,833.008,556.641,581.543,-1000.000
1737965911.961,832.520,911.133,705.078,999.512,-773.438
1737965911.965,-602.051,-601.074,-500.488,843.262,777.832
1737965911.969,-1000.000,-1000.000,-1000.000,-635.254,875.977
1737965911.971,-664.062,-818.848,-805.664,-994.141,-667.969
1737965911.975,833.496,671.387,392.090,583.008,-1000.000
1737965911.979,914.551,950.684,785.645,999.512,-836.914
1737965911.983,-601.074,-611.816,-311.035,832.520,649.902
1737965911.987,-1000.000,-1000.000,-1000.000,-607.910,958.496
1737965911.991,-850.098,-866.211,-905.273,-1000.000,-603.027
1737965911.995,635.254,583.984,242.676,464.355,-1000.000
1737965911.998,957.031,999.512,855.469,999.512,-866.699
1737965912.002,-613.770,-518.066,-164.551,919.434,585.449
1737965912.006,-1000.000,-1000.000,-960.449,-390.625,999.512
1737965912.010,-859.375,-871.582,-978.516,-1000.000,-528.809
1737965912.014,566.895,514.648,-46.387,245.605,-1000.000
1737965912.016,999.512,999.512,782.715,999.512,-913.086
1737965912.020,-433.105,-323.242,61.035,979.492,461.426
1737965912.024,-1000.000,-1000.000,-880.371,-163.574,999.512
1737965912.028,-845.215,-938.477,-1000.000,-1000.000,-366.211
1737965912.032,539.062,326.660,-187.988,-183.594,-1000.000
1737965912.036,999.512,999.512,800.293,942.383,-937.500
1737965912.040,-251.465,33.203,380.371,999.512,367.188
1737965912.043,-1000.000,-1000.000,-739.746,237.305,999.512
1737965912.047,-929.688,-1000.000,-1000.000,-1000.000,-135.742
1737965912.051,322.754,83.984,-313.477,-593.262,-1000.000
1737965912.055,999.512,999.512,766.113,794.434,-1000.000
1737965912.059,250.488,465.332,441.895,999.512,-213.379
1737965912.061,-975.586,-851.074,-716.309,594.238,999.512
1737965912.065,-1000.000,-1000.000,-1000.000,-929.199,207.520
1737965912.069,152.344,-280.273,-524.414,-864.746,-957.031
1737965912.073,999.512,999.512,609.863,645.020,-1000.000
1737965912.077,572.754,718.262,569.824,999.512,-597.656
1737965912.081,-779.297,-706.055,-620.117,767.090,944.336
1737965912.085,-1000.000,-1000.000,-1000.000,-733.398,652.832
1737965912.088,-267.090,-616.699,-692.871,-977.051,-784.180
1737965912.092,999.512,865.723,502.441,580.078,-1000.000
1737965912.096,777.832,891.602,712.402,999.512,-646.484
1737965912.100,-639.160,-609.375,-526.855,843.262,859.863
1737965912.104,-1000.000,-1000.000,-1000.000,-635.254,880.371
1737965912.122,-636.719,-788.086,-766.113,-994.141,-630.859
1737965912.126,854.492,706.543,447.266,583.008,-1000.000
1737965912.130,907.715,943.848,779.785,999.512,-841.797
1737965912.134,-595.215,-609.863,-374.512,827.637,646.484
1737965912.138,-1000.000,-1000.000,-1000.000,-610.352,950.684
1737965912.142,-810.547,-864.746,-865.723,-963.867,-618.164
1737965912.146,686.523,598.145,266.602,513.184,-1000.000
1737965912.149,948.730,999.023,788.574,999.512,-868.652
1737965912.153,-612.305,-555.664,-208.008,891.113,589.355
1737965912.157,-1000.000,-1000.000,-969.727,-481.934,999.512
1737965912.161,-867.188,-859.863,-970.215,-1000.000,-542.480
1737965912.165,584.961,547.852,-0.977,310.547,-1000.000
1737965912.167,999.512,999.512,792.969,999.512,-860.840
1737965912.171,-524.902,-375.977,73.242,964.355,567.871
1737965912.175,-1000.000,-1000.000,-877.441,-229.980,999.512
1737965912.179,-846.191,-917.480,-1000.000,-1000.000,-441.406
1737965912.183,541.504,383.301,-136.719,-11.719,-1000.000
1737965912.187,999.512,999.512,800.781,995.117,-948.242
1737965912.191,-285.156,-71.289,243.164,999.512,348.633
1737965912.194,-1000.000,-1000.000,-804.688,180.176,999.512
1737965912.198,-914.062,-1000.000,-1000.000,-1000.000,-47.852
1737965912.202,365.723,145.996,-203.613,-424.316,-821.777
1737965912.206,999.512,999.512,783.691,871.094,-1000.000
1737965912.210,134.277,339.355,375.488,999.512,-26.855
1737965912.211,-1000.000,-909.668,-715.820,590.332,999.512
1737965912.215,-1000.000,-1000.000,-1000.000,-976.562,100.098
1737965912.219,160.645,-215.332,-481.445,-748.535,-994.141
1737965912.223,999.512,999.512,658.691,755.859,-1000.000
1737965912.227,406.250,547.852,505.859,999.512,-328.613
1737965912.231,-871.582,-794.922,-661.621,724.121,999.512
1737965912.235,-1000.000,-1000.000,-1000.000,-796.875,534.668
1737965912.238,-211.914,-557.129,-650.879,-937.500,-812.500
1737965912.242,999.512,916.016,595.703,613.281,-1000.000
1737965912.246,696.777,860.352,712.402,999.512,-698.242
1737965912.250,-708.984,-621.094,-576.172,843.750,845.703
1737965912.254,-1000.000,-1000.000,-1000.000,-634.766,811.035
1737965912.256,-586.426,-740.723,-721.680,-994.141,-707.031
1737965912.260,895.508,758.301,452.148,583.008,-1000.000
1737965912.264,900.879,937.988,734.863,999.512,-825.195
1737965912.268,-592.285,-612.793,-416.504,834.961,674.805
1737965912.272,-1000.000,-1000.000,-1000.000,-628.906,935.547
1737965912.276,-640.625,-754.883,-769.043,-909.180,-625.000
1737965912.280,797.363,653.809,339.844,601.562,-1000.000
1737965912.283,916.504,961.914,802.246,999.512,-831.055
1737965912.287,-600.586,-576.172,-102.051,879.883,657.715
1737965912.291,-1000.000,-1000.000,-950.195,-530.273,950.195
1737965912.295,-867.188,-856.934,-958.496,-1000.000,-620.605
1737965912.299,584.961,562.988,123.047,414.062,-1000.000
1737965912.303,999.512,999.512,796.387,999.512,-892.578
1737965912.307,-525.879,-408.203,-50.781,955.078,525.879
1737965912.311,-1000.000,-1000.000,-914.062,-283.203,999.512
1737965912.315,-851.562,-882.812,-1000.000,-1000.000,-479.004
1737965912.319,551.758,461.914,-117.676,145.020,-1000.000
1737965912.323,999.512,999.512,795.410,999.512,-945.312
1737965912.327,-341.309,-155.273,153.809,999.512,394.043
1737965912.330,-1000.000,-1000.000,-843.750,37.109,999.512
1737965912.334,-875.000,-970.215,-1000.000,-1000.000,-331.543
1737965912.338,458.496,258.301,-242.676,-288.574,-1000.000
1737965912.342,999.512,999.512,797.852,914.062,-973.145
1737965912.346,-40.527,256.348,442.383,999.512,282.227
1737965912.346,-1000.000,-952.637,-720.703,437.988,999.512
1737965912.350,-985.352,-1000.000,-1000.000,-1000.000,-90.332
1737965912.354,242.188,-35.156,-411.133,-667.480,-1000.000
1737965912.358,999.512,999.512,684.082,786.133,-1000.000
1737965912.362,420.410,587.891,503.418,999.512,-449.707
1737965912.366,-886.719,-779.785,-665.039,689.453,999.512
1737965912.370,-1000.000,-1000.000,-1000.000,-846.680,541.016
1737965912.373,-31.250,-429.199,-593.262,-890.137,-813.477
1737965912.377,999.512,978.516,571.777,655.762,-1000.000
1737965912.381,678.223,816.406,628.418,999.512,-693.359
1737965912.385,-705.078,-636.230,-578.125,832.520,874.023
1737965912.389,-1000.000,-1000.000,-1000.000,-651.367,660.156
1737965912.392,-396.484,-676.270,-727.051,-991.211,-818.359
1737965912.396,978.516,817.871,470.215,582.520,-1000.000
1737965912.400,862.793,917.969,741.211,999.512,-752.930
1737965912.404,-567.871,-599.121,-442.383,842.773,773.438
1737965912.408,-1000.000,-1000.000,-1000.000,-634.766,877.441
1737965912.412,-663.574,-821.777,-805.176,-995.117,-667.480
1737965912.416,833.984,665.039,440.430,581.055,-1000.000
1737965912.419,914.551,958.496,809.570,999.512,-866.211
1737965912.423,-599.609,-601.074,-298.340,826.660,605.469
1737965912.427,-1000.000,-1000.000,-1000.000,-594.727,980.957
1737965912.431,-832.031,-860.352,-897.461,-1000.000,-582.031
1737965912.435,646.484,570.312,169.922,393.066,-1000.000
1737965912.452,979.004,999.512,795.410,999.512,-886.230
1737965912.456,-573.730,-444.824,-100.098,906.250,562.988
1737965912.460,-1000.000,-1000.000,-928.711,-369.141,999.512
1737965912.464,-853.027,-859.375,-1000.000,-1000.000,-547.852
1737965912.468,554.199,511.719,-83.008,14.160,-1000.000
1737965912.472,999.512,999.512,823.242,999.512,-890.137
1737965912.476,-354.980,-208.496,258.301,996.582,512.207
1737965912.479,-1000.000,-1000.000,-801.758,-166.504,999.512
1737965912.483,-836.914,-940.430,-1000.000,-1000.000,-429.688
1737965912.487,523.926,328.613,-183.594,-388.184,-1000.000
1737965912.491,999.512,999.512,800.293,865.234,-982.422
1737965912.495,-72.754,150.391,310.059,999.512,134.766
1737965912.497,-1000.000,-993.652,-772.949,244.141,999.512
1737965912.501,-964.355,-1000.000,-1000.000,-1000.000,283.203
1737965912.505,291.504,19.531,-375.977,-702.637,-902.832
1737965912.509,999.512,999.512,702.637,713.867,-1000.000
1737965912.513,321.289,506.348,474.121,999.512,-244.141
1737965912.517,-932.617,-829.590,-678.711,608.398,999.512
1737965912.521,-1000.000,-1000.000,-1000.000,-905.273,403.320
1737965912.524,-0.977,-384.766,-538.086,-888.672,-891.602
1737965912.528,999.512,999.512,631.836,624.023,-1000.000
1737965912.532,597.656,751.465,665.527,999.512,-412.598
1737965912.536,-771.484,-696.289,-566.895,773.438,999.512
1737965912.540,-1000.000,-1000.000,-1000.000,-726.074,630.371
1737965912.542,-407.715,-675.781,-694.824,-978.516,-776.855
1737965912.546,997.070,823.242,514.648,580.566,-1000.000
1737965912.550,799.316,908.203,694.336,999.512,-753.418
1737965912.554,-651.367,-610.352,-535.645,843.262,760.254
1737965912.558,-1000.000,-1000.000,-1000.000,-635.254,928.223
1737965912.562,-679.688,-822.754,-793.457,-994.141,-605.469
1737965912.566,819.824,666.992,426.270,583.008,-1000.000
1737965912.569,917.480,951.660,791.016,999.512,-831.055
1737965912.573,-598.145,-611.816,-339.355,831.055,658.203
1737965912.577,-1000.000,-1000.000,-1000.000,-605.957,950.684
1737965912.581,-810.547,-863.770,-903.809,-1000.000,-616.211
1737965912.585,686.523,584.961,199.707,447.754,-1000.000
1737965912.587,948.730,999.512,797.852,999.512,-877.441
1737965912.591,-612.305,-510.254,-154.297,891.113,589.355
1737965912.595,-1000.000,-1000.000,-962.891,-466.309,982.910
1737965912.599,-859.375,-858.887,-979.980,-1000.000,-593.750
1737965912.603,566.895,534.180,37.598,316.406,-1000.000
1737965912.607,999.512,999.512,812.012,999.512,-884.766
1737965912.611,-433.105,-316.406,51.270,974.609,429.688
1737965912.614,-1000.000,-1000.000,-876.953,-195.312,999.512
1737965912.618,-844.238,-911.621,-1000.000,-1000.000,-53.711
1737965912.622,537.109,374.512,-136.230,-27.344,-1000.000
1737965912.626,999.512,999.512,806.152,989.258,-1000.000
1737965912.630,-227.051,71.777,287.109,999.512,322.754
1737965912.631,-1000.000,-1000.000,-773.926,232.910,999.512
1737965912.635,-890.625,-1000.000,-1000.000,-1000.000,-263.184
1737965912.639,399.902,184.082,-310.059,-488.281,-1000.000
1737965912.643,999.512,999.512,754.883,849.609,-1000.000
1737965912.647,268.066,464.355,432.617,999.512,-263.184
1737965912.651,-972.168,-850.586,-707.031,585.938,999.512
1737965912.655,-1000.000,-1000.000,-1000.000,-973.633,199.707
1737965912.658,185.059,-180.664,-472.168,-756.348,-963.379
1737965912.662,999.512,999.512,678.711,750.000,-1000.000
1737965912.666,575.195,707.520,572.754,999.512,-617.676
1737965912.670,-779.785,-697.266,-626.953,742.188,932.617
1737965912.674,-1000.000,-1000.000,-1000.000,-773.926,619.141
1737965912.677,-212.891,-551.270,-651.367,-949.707,-804.688
1737965912.681,999.512,904.785,522.949,604.492,-1000.000
1737965912.685,770.020,879.395,677.246,999.512,-752.930
1737965912.689,-633.301,-600.586,-493.652,843.262,792.969
1737965912.693,-1000.000,-1000.000,-1000.000,-634.766,824.707
1737965912.697,-582.520,-750.488,-766.602,-994.141,-705.566
1737965912.701,895.996,748.047,462.891,583.008,-1000.000
1737965912.704,895.508,935.547,815.918,999.512,-769.043
1737965912.708,-586.914,-606.934,-322.266,842.773,726.074
1737965912.712,-1000.000,-1000.000,-1000.000,-635.254,832.031
1737965912.716,-747.070,-853.516,-841.797,-995.605,-653.320
1737965912.720,755.371,609.863,381.836,590.332,-1000.000
1737965912.721,934.082,999.512,809.082,999.512,-874.512
1737965912.725,-608.887,-547.363,-212.402,883.789,587.402
1737965912.729,-1000.000,-1000.000,-967.773,-507.324,999.512
1737965912.733,-865.234,-853.027,-962.891,-1000.000,-523.438
1737965912.766,-1000.000,-1000.000,-837.402,81.055,999.512
1737965912.770,-885.742,-991.211,-1000.000,-1000.000,-209.473
1737965912.774,422.363,219.238,-228.516,-344.727,-1000.000
1737965912.778,999.512,999.512,791.504,893.555,-1000.000
1737965912.782,119.141,338.379,390.137,999.512,-15.625
1737965912.786,-1000.000,-912.109,-729.004,503.418,999.512
1737965912.790,-1000.000,-1000.000,-1000.000,-1000.000,626.465
1737965912.793,214.355,-137.207,-436.035,-736.816,-710.449
1737965912.797,999.512,999.512,669.922,743.652,-1000.000
1737965912.801,503.418,628.906,544.434,999.512,-391.602
1737965912.805,-836.426,-761.719,-605.469,696.777,999.512
1737965912.809,-1000.000,-1000.000,-1000.000,-817.871,469.727
1737965912.811,-180.664,-525.391,-636.230,-944.336,-875.488
1737965912.815,999.512,929.199,554.199,594.727,-1000.000
1737965912.819,693.359,844.238,641.113,999.512,-707.520
1737965912.823,-707.031,-633.301,-583.984,836.426,847.168
1737965912.827,-1000.000,-1000.000,-1000.000,-644.043,797.363
1737965912.831,-586.426,-732.422,-735.352,-992.188,-696.777
1737965912.835,895.508,766.602,474.121,583.008,-1000.000
1737965912.838,895.508,930.664,764.160,999.512,-792.969
1737965912.842,-585.938,-604.980,-385.254,841.797,699.219
1737965912.846,-1000.000,-1000.000,-1000.000,-632.324,967.285
1737965912.850,-740.234,-846.191,-819.336,-1000.000,-568.359
1737965912.854,763.184,631.836,345.703,570.801,-1000.000
1737965912.859,932.617,972.656,780.762,999.512,-874.023
1737965912.863,-608.398,-588.867,-226.074,833.008,606.934
1737965912.867,-1000.000,-1000.000,-982.422,-586.914,959.961
1737965912.871,-867.188,-857.422,-941.406,-1000.000,-619.629
1737965912.875,585.449,563.477,147.461,406.738,-1000.000
1737965912.879,999.512,999.512,826.172,999.512,-883.789
1737965912.883,-525.879,-408.691,-53.223,930.664,568.848
1737965912.886,-1000.000,-1000.000,-926.270,-338.379,999.512
1737965912.890,-851.562,-859.863,-1000.000,-1000.000,-564.453
1737965912.894,551.758,497.559,0.000,135.742,-1000.000
1737965912.898,999.512,999.512,839.355,999.512,-937.988
1737965912.902,-336.426,-131.348,152.832,999.023,385.742
1737965912.917,-1000.000,-1000.000,-837.891,-50.781,999.512
1737965912.921,-831.543,-941.895,-1000.000,-1000.000,-305.664
1737965912.925,515.625,326.660,-208.496,-354.004,-1000.000
1737965912.929,999.512,999.512,786.133,880.371,-1000.000
1737965912.933,30.273,284.180,358.398,999.512,62.500
1737965912.937,-1000.000,-957.031,-707.031,376.465,999.512
1737965912.941,-953.125,-1000.000,-1000.000,-1000.000,-100.586
1737965912.944,329.102,113.281,-380.859,-710.449,-1000.000
1737965912.948,999.512,999.512,734.375,734.863,-1000.000
1737965912.952,520.020,608.887,516.602,999.512,-508.301
1737965912.956,-864.746,-761.719,-673.828,634.277,999.512
1737965912.960,-1000.000,-1000.000,-1000.000,-875.488,124.023
1737965912.962,177.246,-235.840,-547.852,-926.758,-1000.000
1737965912.966,999.512,999.512,612.793,587.891,-1000.000
1737965912.970,665.039,797.852,631.836,999.512,-750.000
1737965912.974,-702.637,-609.863,-582.520,780.273,849.609
1737965912.978,-1000.000,-1000.000,-1000.000,-717.773,788.086
1737965912.982,-200.684,-597.168,-695.801,-979.980,-746.094
1737965912.986,999.512,872.070,495.605,581.055,-1000.000
1737965912.989,832.520,901.855,732.422,999.512,-796.875
1737965912.993,-551.758,-590.820,-367.676,836.914,716.309
1737965912.997,-1000.000,-1000.000,-1000.000,-618.652,659.180
1737965913.001,-613.770,-780.762,-804.688,-1000.000,-775.879
1737965913.005,872.070,710.938,421.387,503.906,-1000.000
1737965913.007,902.832,951.172,800.781,999.512,-893.066
1737965913.011,-592.773,-595.703,-296.875,826.172,615.723
1737965913.015,-1000.000,-1000.000,-1000.000,-595.703,956.055
1737965913.019,-786.621,-846.191,-854.004,-1000.000,-637.695
1737965913.023,685.547,574.707,336.914,382.812,-1000.000
1737965913.027,886.230,966.309,767.578,999.512,-778.320
1737965913.031,-581.543,-462.402,-128.418,886.230,571.777
1737965913.034,-1000.000,-1000.000,-918.945,-410.645,999.512
1737965913.038,-859.375,-850.586,-986.816,-1000.000,-430.176
1737965913.042,554.199,538.574,-23.926,23.438,-1000.000
1737965913.046,999.512,999.512,800.781,999.512,-958.984
1737965913.050,-336.426,-190.918,104.492,983.887,424.316
1737965913.052,-1000.000,-1000.000,-861.816,-190.918,999.512
1737965913.056,-836.426,-906.250,-1000.000,-1000.000,-514.648
1737965913.060,522.461,395.020,-173.828,-429.688,-1000.000
1737965913.064,999.512,999.512,796.875,851.562,-1000.000
1737965913.068,-45.898,183.105,301.758,999.512,104.980
1737965913.072,-1000.000,-1000.000,-774.414,182.617,999.512
1737965913.076,-919.922,-1000.000,-1000.000,-1000.000,-83.008
1737965913.079,389.648,170.410,-228.516,-653.320,-972.168
1737965913.083,999.512,999.512,808.105,743.652,-1000.000
1737965913.087,331.543,528.809,457.031,999.512,-381.836
1737965913.091,-950.195,-816.406,-669.922,562.988,999.512
1737965913.095,-1000.000,-1000.000,-1000.000,-936.035,461.914
1737965913.097,188.965,-183.594,-517.090,-896.973,-886.230
1737965913.101,999.512,999.512,630.859,593.750,-1000.000
1737965913.105,598.633,748.047,607.910,999.512,-639.648
1737965913.109,-761.719,-655.273,-597.656,718.262,917.480
1737965913.113,-1000.000,-1000.000,-1000.000,-785.156,545.410
1737965913.117,-199.707,-550.293,-679.199,-966.309,-878.418
1737965913.121,999.512,901.367,556.152,578.125,-1000.000
1737965913.124,806.641,889.648,752.930,999.512,-806.641
1737965913.128,-583.008,-587.891,-529.785,838.867,745.117
1737965913.132,-1000.000,-1000.000,-1000.000,-625.000,823.242
1737965913.136,-581.055,-748.535,-755.371,-1000.000,-708.496
1737965913.140,896.973,750.488,435.059,534.668,-1000.000
1737965913.142,895.508,934.570,767.090,999.512,-868.652
1737965913.146,-586.426,-606.934,-347.168,821.289,626.953
1737965913.150,-1000.000,-1000.000,-1000.000,-584.961,947.754
1737965913.154,-740.723,-849.121,-875.488,-1000.000,-627.930
1737965913.158,762.695,601.074,248.535,323.242,-1000.000
1737965913.162,932.617,999.512,815.430,999.512,-873.535
1737965913.166,-608.398,-500.488,-41.992,859.863,600.098
1737965913.169,-1000.000,-1000.000,-920.898,-479.980,974.121
1737965913.173,-853.027,-841.797,-997.070,-1000.000,-607.910
1737965913.177,564.941,542.480,154.297,115.723,-1000.000
1737965913.181,967.285,999.512,823.242,999.512,-927.246
1737965913.185,-466.797,-307.617,19.531,948.242,468.262
1737965913.186,-1000.000,-1000.000,-874.023,-261.719,999.512
1737965913.190,-852.051,-889.160,-1000.000,-1000.000,-496.094
1737965913.194,540.039,442.383,-63.477,-311.523,-1000.000
1737965913.198,999.512,999.512,806.641,908.203,-989.746
1737965913.202,-226.562,63.965,236.816,999.512,197.266
1737965913.206,-1000.000,-1000.000,-791.016,54.688,999.512
1737965913.210,-885.742,-1000.000,-1000.000,-1000.000,-107.422
1737965913.213,419.922,237.793,-277.832,-655.762,-1000.000
1737965913.217,999.512,999.512,770.020,722.656,-1000.000
1737965913.221,205.078,443.359,451.660,999.512,-120.117
1737965913.225,-1000.000,-872.070,-697.266,456.543,999.512
1737965913.229,-1000.000,-1000.000,-1000.000,-979.980,108.398
1737965913.246,247.559,-26.855,-375.000,-771.973,-984.863
1737965913.250,999.512,999.512,716.797,628.418,-1000.000
1737965913.254,571.777,687.500,569.824,999.512,-604.980
1737965913.258,-804.688,-709.961,-650.391,686.523,951.172
1737965913.262,-1000.000,-1000.000,-1000.000,-823.242,545.898
1737965913.266,45.898,-217.773,-365.234,-670.410,-830.078
1737965913.270,999.512,999.512,677.734,700.195,-1000.000
1737965913.273,727.051,817.383,630.371,999.512,-750.977
1737965913.277,-619.141,-575.684,-541.016,866.211,780.273
1737965913.281,-1000.000,-1000.000,-1000.000,-642.090,919.922
1737965913.285,-550.781,-725.586,-741.699,-997.070,-613.770
1737965913.289,910.156,772.461,440.430,578.613,-1000.000
1737965913.292,890.137,929.688,758.301,999.512,-822.266
1737965913.296,-583.496,-604.980,-331.055,828.613,661.621
1737965913.300,-1000.000,-1000.000,-1000.000,-599.121,842.285
1737965913.304,-740.234,-850.098,-855.957,-1000.000,-657.715
1737965913.308,763.184,622.070,318.359,402.832,-1000.000
1737965913.312,932.617,984.375,804.199,999.512,-881.836
1737965913.316,-608.398,-572.754,-210.938,807.617,606.445
1737965913.319,-1000.000,-1000.000,-999.023,-555.664,963.379
1737965913.323,-867.188,-856.445,-922.852,-1000.000,-547.852
1737965913.327,585.449,562.500,213.867,93.262,-1000.000
1737965913.331,999.512,999.512,816.406,999.512,-903.320
1737965913.335,-526.367,-405.762,-52.246,917.969,513.672
1737965913.337,-1000.000,-1000.000,-904.297,-323.730,999.512
1737965913.341,-851.562,-896.484,-1000.000,-1000.000,-439.941
1737965913.345,551.758,439.941,-129.395,-475.586,-1000.000
1737965913.349,999.512,999.512,796.875,858.398,-922.852
1737965913.353,-353.516,-173.828,203.125,999.512,367.188
1737965913.357,-1000.000,-1000.000,-824.707,-144.531,999.512
1737965913.361,-693.848,-785.156,-1000.000,-1000.000,-134.277
1737965913.364,506.836,304.199,-218.262,-645.996,-1000.000
1737965913.368,999.512,999.512,814.941,708.008,-1000.000
1737965913.372,-1.953,276.367,431.641,999.512,264.160
1737965913.376,-1000.000,-952.148,-748.535,330.078,999.512
1737965913.380,-990.234,-1000.000,-1000.000,-1000.000,198.242
1737965913.382,230.469,-89.844,-362.793,-832.520,-739.258
1737965913.386,999.512,999.512,704.590,602.051,-1000.000
1737965913.390,494.141,621.582,501.953,999.512,-498.047
1737965913.394,-863.770,-772.949,-670.410,626.953,999.512
1737965913.398,-1000.000,-1000.000,-1000.000,-863.770,475.098
1737965913.402,73.730,-355.469,-498.535,-845.703,-879.883
1737965913.406,999.512,998.535,604.980,600.098,-1000.000
1737965913.409,663.574,813.477,643.555,999.512,-683.594
1737965913.413,-695.801,-619.629,-516.602,786.621,872.559
1737965913.417,-1000.000,-1000.000,-1000.000,-718.750,763.184
1737965913.421,-396.484,-684.570,-757.812,-986.328,-743.164
1737965913.425,978.516,812.500,473.145,571.289,-1000.000
1737965913.426,862.793,919.922,722.656,999.512,-834.961
1737965913.430,-567.383,-599.609,-526.367,831.055,666.992
1737965913.434,-1000.000,-1000.000,-1000.000,-605.469,945.801
1737965913.438,-652.344,-807.129,-775.391,-1000.000,-641.602
1737965913.442,841.797,671.875,390.625,435.059,-1000.000
1737965913.446,625.488,679.199,597.656,999.512,-672.363
1737965913.450,-725.586,-709.473,-326.660,816.895,668.457
1737965913.453,-1000.000,-1000.000,-962.402,-576.660,965.332
1737965913.457,-866.211,-879.883,-941.406,-1000.000,-538.574
1737965913.461,625.000,570.312,210.938,258.301,-1000.000
1737965913.465,999.512,999.512,841.797,999.512,-871.582
1737965913.469,-525.391,-399.414,22.949,865.723,581.543
1737965913.471,-1000.000,-1000.000,-883.789,-412.598,999.512
1737965913.475,-847.168,-841.797,-1000.000,-1000.000,-546.875
1737965913.479,542.969,517.090,-33.691,-269.531,-1000.000
1737965913.483,999.512,999.512,812.500,955.566,-968.262
1737965913.487,-281.738,-82.031,119.141,999.512,286.621
1737965913.491,-1000.000,-1000.000,-865.234,-232.910,999.512
1737965913.495,-830.566,-929.688,-1000.000,-1000.000,-180.664
1737965913.498,512.695,362.793,-128.906,-587.891,-1000.000
1737965913.502,999.512,999.512,798.828,767.090,-1000.000
1737965913.506,102.539,305.664,309.082,999.512,-43.457
1737965913.510,-1000.000,-947.266,-763.184,141.602,999.512
1737965913.514,-963.379,-1000.000,-1000.000,-1000.000,88.379
1737965913.517,333.984,114.746,-378.418,-748.047,-1000.000
1737965913.521,999.512,999.512,723.145,649.902,-1000.000
1737965913.525,519.531,601.562,516.602,999.512,-242.676
1737965913.529,-864.258,-764.648,-662.598,555.176,999.512
1737965913.533,-1000.000,-1000.000,-1000.000,-931.641,457.520
1737965913.537,176.758,-258.789,-523.926,-912.109,-851.562
1737965913.541,999.512,999.512,668.457,574.219,-1000.000
1737965913.544,661.133,802.246,644.043,999.512,-715.332
1737965913.548,-697.754,-608.887,-604.980,709.473,802.246
1737965913.552,-1000.000,-1000.000,-1000.000,-794.434,895.996
1737965913.556,-277.832,-602.051,-629.395,-964.355,-520.508
1737965913.560,999.512,870.605,544.434,577.148,-1000.000
1737965913.561,844.238,902.344,689.941,999.512,-840.820
1737965913.565,-558.105,-590.820,-512.207,839.844,679.688
1737965913.569,-1000.000,-1000.000,-1000.000,-626.465,937.988
1737965913.573,-642.578,-777.344,-769.531,-1000.000,-622.070
1737965913.577,850.098,714.844,435.059,540.527,-1000.000
1737965913.581,909.180,951.660,815.430,999.512,-831.543
1737965913.585,-595.703,-594.238,-175.293,825.195,651.367
1737965913.588,-1000.000,-1000.000,-974.121,-593.262,962.402
1737965913.592,-806.641,-855.469,-916.016,-1000.000,-601.562
1737965913.596,676.270,576.660,251.953,371.582,-1000.000
1737965913.600,979.492,999.512,809.082,999.512,-879.883
1737965913.604,-562.988,-444.336,-156.738,857.910,534.180
1737965913.621,-1000.000,-1000.000,-954.102,-479.980,999.512
1737965913.625,-853.027,-843.750,-972.168,-1000.000,-437.012
1737965913.629,553.711,536.621,0.000,101.074,-1000.000
1737965913.633,999.512,999.512,795.410,999.512,-930.664
1737965913.637,-363.770,-217.773,52.246,953.613,388.672
1737965913.641,-1000.000,-1000.000,-881.348,-263.672,923.340
1737965913.645,-640.137,-708.496,-987.793,-1000.000,-336.914
1737965913.648,598.633,474.609,-122.070,-316.895,-1000.000
1737965913.652,999.512,999.512,800.293,905.762,-977.539
1737965913.656,-41.504,168.457,338.867,999.512,329.102
1737965913.660,-1000.000,-1000.000,-765.625,58.105,999.512
1737965913.664,-925.293,-1000.000,-1000.000,-1000.000,-31.250
1737965913.666,375.000,174.805,-299.316,-653.320,-1000.000
1737965913.670,999.512,999.512,802.734,724.609,-1000.000
1737965913.674,332.031,502.441,493.652,999.512,-136.230
1737965913.678,-952.148,-834.473,-699.707,478.027,999.512
1737965913.682,-1000.000,-1000.000,-1000.000,-973.633,323.730
1737965913.686,195.312,-158.691,-491.699,-878.906,-908.203
1737965913.690,999.512,999.512,653.809,590.332,-1000.000
1737965913.693,588.379,722.656,571.289,999.512,-650.391
1737965913.697,-774.902,-679.688,-624.023,702.637,880.371
1737965913.701,-1000.000,-1000.000,-1000.000,-801.270,850.098
1737965913.705,-166.504,-519.043,-678.223,-962.402,-654.297
1737965913.709,999.512,918.945,523.926,576.660,-1000.000
1737965913.711,763.184,878.906,685.059,999.512,-692.383
1737965913.715,-630.371,-591.309,-553.223,842.773,821.289
1737965913.719,-1000.000,-1000.000,-1000.000,-635.254,832.031
1737965913.723,-582.520,-737.305,-761.719,-994.141,-693.848
1737965913.727,895.996,761.230,445.801,583.008,-1000.000
1737965913.731,895.508,932.617,770.508,999.512,-848.145
1737965913.735,-588.867,-606.934,-370.605,838.867,647.461
1737965913.738,-1000.000,-1000.000,-1000.000,-624.512,936.523
1737965913.742,-775.391,-859.375,-804.199,-1000.000,-566.406
1737965913.746,724.609,607.422,368.164,539.062,-1000.000
1737965913.750,940.430,993.652,807.617,999.512,-883.789
1737965913.754,-610.352,-561.523,-181.152,878.906,600.098
1737965913.756,-1000.000,-1000.000,-964.844,-499.023,983.887
1737965913.760,-864.258,-853.027,-973.633,-1000.000,-589.355
1737965913.764,578.613,555.176,49.805,354.492,-1000.000
1737965913.768,999.512,999.512,795.410,999.512,-902.832
1737965913.802,423.340,236.328,-270.508,-459.961,-1000.000
1737965913.806,999.512,999.512,775.879,840.820,-1000.000
1737965913.810,123.047,340.332,397.949,999.512,-0.488
1737965913.814,-1000.000,-921.875,-729.492,485.840,999.512
1737965913.818,-1000.000,-1000.000,-1000.000,-1000.000,46.875
1737965913.822,240.234,17.578,-225.098,-453.125,-1000.000
1737965913.826,999.512,999.512,781.738,863.770,-1000.000
1737965913.829,508.789,611.328,568.359,999.512,-166.016
1737965913.833,-845.215,-745.117,-597.656,722.168,999.512
1737965913.837,-1000.000,-1000.000,-1000.000,-826.660,377.930
1737965913.841,-58.105,-489.258,-607.422,-936.035,-874.023
1737965913.845,999.512,945.312,580.566,606.934,-1000.000
1737965913.846,677.734,840.332,639.160,999.512,-715.820
1737965913.850,-699.707,-626.953,-583.984,843.750,841.309
1737965913.854,-1000.000,-1000.000,-1000.000,-634.766,809.570
1737965913.858,-546.387,-727.539,-747.070,-994.141,-706.055
1737965913.862,913.086,770.996,446.289,583.008,-1000.000
1737965913.866,888.672,929.688,750.977,999.512,-777.344
1737965913.870,-583.008,-604.980,-390.137,843.262,724.609
1737965913.873,-1000.000,-1000.000,-1000.000,-635.254,939.941
1737965913.877,-740.234,-847.168,-853.027,-994.629,-609.375
1737965913.881,763.672,631.836,304.199,585.938,-1000.000
1737965913.885,932.617,969.238,787.109,999.512,-869.141
1737965913.889,-608.398,-594.238,-259.277,852.539,611.328
1737965913.891,-1000.000,-1000.000,-1000.000,-563.477,958.496
1737965913.895,-869.141,-858.887,-925.781,-1000.000,-620.117
1737965913.899,590.332,566.895,146.484,431.641,-1000.000
1737965913.903,999.512,999.512,800.293,999.512,-869.141
1737965913.907,-548.828,-430.176,-82.520,943.848,536.621
1737965913.911,-1000.000,-1000.000,-931.152,-307.617,984.863
1737965913.915,-852.539,-882.324,-987.305,-1000.000,-388.672
1737965913.918,553.711,472.656,-48.828,144.043,-1000.000
1737965913.922,999.512,999.512,785.156,999.512,-965.332
1737965913.926,-354.980,-208.008,124.023,999.512,406.738
1737965913.930,-1000.000,-1000.000,-846.680,11.719,999.512
1737965913.934,-875.977,-968.750,-1000.000,-1000.000,-364.258
1737965913.936,459.473,259.766,-242.676,-281.738,-1000.000
1737965913.940,999.512,999.512,770.996,914.551,-1000.000
1737965913.944,-57.617,171.387,323.730,999.512,141.602
1737965913.948,-1000.000,-983.398,-767.578,412.598,999.512
1737965913.952,-985.840,-1000.000,-1000.000,-1000.000,-67.383
1737965913.956,248.047,-41.016,-388.184,-654.785,-1000.000
1737965913.960,999.512,999.512,719.238,798.828,-1000.000
1737965913.963,322.754,550.781,504.883,999.512,-370.117
1737965913.967,-934.082,-809.082,-686.035,551.270,999.512
1737965913.971,-1000.000,-1000.000,-1000.000,-915.039,430.664
1737965913.975,-4.883,-399.902,-523.438,-869.629,-790.039
1737965913.979,999.512,997.070,611.328,633.301,-1000.000
1737965913.996,632.812,791.504,620.605,999.512,-679.688
1737965914.000,-740.234,-656.250,-576.172,781.738,905.273
1737965914.004,-1000.000,-1000.000,-1000.000,-716.797,589.355
1737965914.008,-400.879,-660.156,-727.051,-980.469,-854.980
1737965914.012,983.398,829.590,482.422,581.055,-1000.000
1737965914.016,847.168,914.551,723.633,999.512,-763.672
1737965914.020,-587.891,-597.656,-504.883,838.379,779.297
1737965914.023,-1000.000,-1000.000,-1000.000,-623.535,861.328
1737965914.027,-657.715,-812.988,-789.551,-1000.000,-685.059
1737965914.031,832.031,668.945,437.988,526.367,-1000.000
1737965914.035,814.941,851.074,748.535,999.512,-856.445
1737965914.039,-633.301,-645.996,-311.035,823.730,624.023
1737965914.041,-1000.000,-1000.000,-996.094,-589.844,965.332
1737965914.045,-839.844,-872.070,-882.324,-1000.000,-563.965
1737965914.049,661.133,582.031,213.867,367.188,-1000.000
1737965914.053,953.125,999.512,808.105,999.512,-884.766
1737965914.057,-612.793,-491.699,-87.402,809.570,582.031
1737965914.061,-1000.000,-1000.000,-930.664,-425.781,995.117
1737965914.065,-859.375,-859.375,-999.512,-1000.000,-565.918
1737965914.068,566.895,520.996,-48.340,121.094,-1000.000
1737965914.072,999.512,999.512,833.008,999.512,-886.719
1737965914.076,-433.105,-266.113,198.242,993.164,532.715
1737965914.080,-1000.000,-1000.000,-841.797,-172.363,999.512
1737965914.084,-842.773,-933.594,-1000.000,-1000.000,-470.703
1737965914.087,535.156,341.797,-157.227,-161.621,-1000.000
1737965914.091,999.512,999.512,802.246,947.266,-951.172
1737965914.095,-212.891,74.219,300.781,999.512,245.605
1737965914.099,-1000.000,-1000.000,-782.715,262.695,999.512
1737965914.103,-933.105,-1000.000,-1000.000,-1000.000,231.445
1737965914.107,323.242,106.445,-238.770,-475.586,-924.316
1737965914.111,999.512,999.512,771.484,845.703,-1000.000
1737965914.114,270.508,472.168,435.547,999.512,-167.969
1737965914.118,-964.355,-846.191,-668.945,636.719,999.512
1737965914.122,-966.797,-1000.000,-1000.000,-920.898,94.238
1737965914.126,188.477,-248.535,-530.273,-829.102,-1000.000
1737965914.130,999.512,999.512,642.578,696.289,-1000.000
1737965914.131,596.191,737.793,635.254,999.512,-498.535
1737965914.135,-775.879,-681.641,-617.676,771.973,999.512
1737965914.139,-1000.000,-1000.000,-1000.000,-729.492,428.711
1737965914.143,-211.914,-569.824,-674.316,-977.539,-913.574
1737965914.147,999.512,891.113,527.344,580.566,-1000.000
1737965914.151,769.531,888.672,716.797,999.512,-757.324
1737965914.155,-633.789,-597.168,-522.949,843.262,782.227
1737965914.158,-1000.000,-1000.000,-1000.000,-635.254,884.277
1737965914.162,-601.562,-775.391,-727.051,-994.141,-604.492
1737965914.166,881.348,720.703,437.012,583.008,-1000.000
1737965914.170,899.902,940.918,763.184,999.512,-858.887
1737965914.174,-591.309,-608.887,-311.035,837.891,640.625
1737965914.176,-1000.000,-1000.000,-1000.000,-621.582,944.824
1737965914.180,-790.527,-858.887,-890.137,-1000.000,-629.395
1737965914.184,708.496,596.680,244.629,527.344,-1000.000
1737965914.188,949.219,999.512,812.988,999.512,-871.094
1737965914.192,-617.676,-524.902,-152.832,885.254,595.215
1737965914.196,-1000.000,-1000.000,-960.938,-476.074,988.770
1737965914.200,-759.766,-850.098,-922.852,-1000.000,-582.520
1737965914.203,601.074,549.316,142.578,399.414,-1000.000
1737965914.207,999.512,999.512,853.027,999.512,-901.855
1737965914.211,-425.293,-323.242,17.090,972.656,432.129
1737965914.215,-1000.000,-1000.000,-883.301,-219.727,999.512
1737965914.219,-845.215,-895.020,-1000.000,-1000.000,-202.637
1737965914.221,539.551,418.945,-147.949,-12.207,-1000.000
1737965914.225,999.512,999.512,791.016,994.141,-1000.000
1737965914.229,-244.141,0.977,257.324,999.512,301.270
1737965914.233,-1000.000,-1000.000,-794.434,193.848,999.512
1737965914.237,-887.207,-1000.000,-1000.000,-1000.000,-301.758
1737965914.241,422.852,200.195,-275.879,-408.203,-1000.000
1737965914.245,999.512,999.512,801.270,878.418,-996.582
1737965914.248,139.160,401.367,484.863,999.512,175.781
1737965914.252,-1000.000,-885.254,-711.426,592.773,999.512
1737965914.256,-1000.000,-1000.000,-1000.000,-980.957,19.043
1737965914.260,222.168,-145.020,-452.148,-729.980,-983.887
1737965914.264,999.512,999.512,673.340,773.438,-1000.000
1737965914.267,525.879,677.734,542.969,999.512,-578.125
1737965914.271,-826.660,-720.703,-636.230,728.027,980.957
1737965914.275,-1000.000,-1000.000,-1000.000,-792.480,588.379
1737965914.279,-111.816,-506.836,-653.809,-942.871,-848.633
1737965914.283,999.512,928.223,543.945,607.910,-1000.000
1737965914.287,740.234,866.699,688.965,999.512,-713.379
1737965914.291,-648.438,-601.074,-490.234,843.750,850.586
1737965914.294,-1000.000,-1000.000,-1000.000,-634.766,691.895
1737965914.298,-507.812,-719.727,-761.719,-994.141,-803.223
1737965914.302,928.711,777.832,474.609,583.008,-1000.000
1737965914.306,882.324,928.223,799.316,999.512,-814.453
1737965914.310,-580.078,-604.492,-351.074,842.773,703.125
1737965914.327,-1000.000,-1000.000,-1000.000,-633.789,913.086
1737965914.331,-740.234,-847.656,-815.918,-999.512,-649.414
1737965914.335,763.184,625.488,407.715,583.496,-1000.000
1737965914.339,932.617,983.398,807.617,999.512,-865.234
1737965914.343,-608.887,-573.730,-210.938,874.512,578.125
1737965914.347,-1000.000,-1000.000,-973.145,-515.625,999.512
1737965914.351,-867.188,-854.492,-947.266,-1000.000,-490.723
1737965914.354,585.449,557.617,101.562,390.137,-1000.000
1737965914.358,999.512,999.512,810.547,999.512,-910.156
1737965914.362,-526.367,-373.535,-6.836,947.754,545.410
1737965914.366,-1000.000,-1000.000,-897.949,-271.484,984.863
1737965914.370,-851.562,-857.422,-1000.000,-1000.000,-603.027
1737965914.372,551.758,508.301,-107.910,15.625,-1000.000
1737965914.376,999.512,999.512,807.617,999.512,-932.129
1737965914.380,-336.426,-147.949,182.617,999.512,440.430
1737965914.384,-1000.000,-1000.000,-840.820,108.887,999.512
1737965914.388,-836.426,-942.871,-1000.000,-1000.000,-454.590
1737965914.392,522.461,329.102,-167.969,-388.184,-1000.000
1737965914.396,999.512,999.512,812.988,875.000,-987.305
1737965914.399,-50.293,213.379,351.074,999.512,107.910
1737965914.403,-1000.000,-974.121,-758.789,559.082,999.512
1737965914.407,-950.195,-1000.000,-1000.000,-997.070,269.043
1737965914.411,331.055,34.668,-335.449,-718.262,-896.484
1737965914.415,999.512,999.512,720.703,772.949,-1000.000
1737965914.416,326.172,558.594,518.555,999.512,-317.383
1737965914.420,-940.918,-796.387,-645.508,725.098,999.512
1737965914.424,-1000.000,-1000.000,-1000.000,-811.035,208.008
1737965914.428,104.980,-351.562,-596.680,-905.762,-988.770
1737965914.432,999.512,999.512,583.496,663.574,-1000.000
1737965914.436,529.297,687.988,482.910,999.512,-500.000
1737965914.440,-768.066,-684.082,-642.578,745.605,991.211
1737965914.443,-1000.000,-1000.000,-1000.000,-667.969,572.266
1737965914.447,-323.730,-651.855,-736.328,-978.027,-831.543
1737965914.451,999.512,843.262,529.785,575.195,-1000.000
1737965914.455,837.402,911.133,736.816,999.512,-791.016
1737965914.459,-577.148,-596.191,-512.207,840.820,743.652
1737965914.461,-1000.000,-1000.000,-1000.000,-629.395,890.137
1737965914.465,-663.574,-811.523,-809.570,-1000.000,-665.039
1737965914.469,833.496,679.199,369.141,556.152,-1000.000
1737965914.473,918.945,954.590,796.875,999.512,-855.957
1737965914.477,-603.516,-617.676,-243.652,837.891,629.883
1737965914.481,-1000.000,-1000.000,-989.746,-583.008,953.125
1737965914.485,-710.938,-759.766,-867.188,-989.258,-619.141
1737965914.488,720.703,609.863,199.219,482.422,-1000.000
1737965914.492,932.129,999.512,854.492,999.512,-865.723
1737965914.496,-604.492,-456.055,18.066,916.016,596.680
1737965914.500,-1000.000,-1000.000,-915.527,-374.512,998.535
1737965914.504,-855.957,-874.512,-1000.000,-1000.000,-537.598
1737965914.506,558.594,488.770,-4.395,76.172,-1000.000
1737965914.510,999.512,999.512,805.664,999.512,-916.992
1737965914.514,-387.695,-229.980,79.590,999.512,378.418
1737965914.518,-1000.000,-1000.000,-871.094,-103.516,999.512
1737965914.522,-839.844,-955.078,-1000.000,-1000.000,-91.309
1737965914.526,517.578,292.480,-125.488,-171.387,-1000.000
1737965914.530,999.512,999.512,816.895,945.801,-1000.000
1737965914.533,-83.984,138.184,311.523,999.512,218.750
1737965914.537,-1000.000,-997.070,-732.910,361.816,999.512
1737965914.541,-968.750,-1000.000,-1000.000,-1000.000,-50.781
1737965914.545,278.320,-1.465,-403.320,-692.383,-1000.000
1737965914.549,999.512,999.512,708.984,744.141,-1000.000
1737965914.551,326.172,518.066,469.727,999.512,-324.219
1737965914.555,-939.941,-827.637,-704.590,629.395,999.512
1737965914.559,-1000.000,-1000.000,-1000.000,-889.160,191.406
1737965914.563,71.777,-354.004,-513.672,-896.973,-990.723
1737965914.567,999.512,999.512,622.070,621.582,-1000.000
1737965914.571,495.117,667.969,539.551,999.512,-521.973
1737965914.575,-807.617,-707.031,-612.305,781.250,940.430
1737965914.578,-1000.000,-1000.000,-1000.000,-717.285,826.660
1737965914.582,-310.059,-637.207,-702.148,-979.980,-637.207
1737965914.586,999.512,855.469,505.859,581.055,-1000.000
1737965914.590,810.547,903.809,729.980,999.512,-733.398
1737965914.594,-606.934,-599.121,-427.734,843.262,791.016
1737965914.597,-1000.000,-1000.000,-1000.000,-635.254,854.980
1737965914.601,-650.879,-798.828,-812.988,-994.141,-688.965
1737965914.605,843.750,694.336,418.945,583.496,-1000.000
1737965914.609,911.133,946.289,796.387,999.512,-857.422
1737965914.613,-596.191,-610.840,-328.613,835.938,632.324
1737965914.617,-1000.000,-1000.000,-1000.000,-616.211,945.312
1737965914.621,-810.547,-863.770,-861.328,-1000.000,-601.562
1737965914.624,686.523,585.938,320.312,503.906,-1000.000
1737965914.628,948.242,999.512,809.082,999.512,-879.883
1737965914.632,-612.305,-512.695,-159.668,910.156,596.680
1737965914.636,-1000.000,-1000.000,-946.289,-419.434,977.539
1737965914.640,-859.375,-858.887,-992.188,-1000.000,-602.051
1737965914.642,566.895,533.203,-26.367,294.434,-1000.000
1737965914.646,999.512,999.512,792.480,999.512,-914.062
1737965914.650,-433.105,-314.453,103.027,982.910,482.910
1737965914.654,-1000.000,-1000.000,-865.234,-185.059,999.512
1737965914.658,-845.215,-917.480,-1000.000,-1000.000,-462.402
1737965914.662,539.062,369.629,-72.266,30.762,-1000.000
1737965914.666,999.512,999.512,863.770,999.512,-933.105
1737965914.669,-250.000,33.203,314.453,999.512,387.207
1737965914.673,-1000.000,-1000.000,-778.809,238.281,999.512
1737965914.677,-923.828,-1000.000,-1000.000,-1000.000,-189.941
1737965914.681,352.539,122.559,-288.086,-493.652,-1000.000
1737965914.685,999.512,999.512,758.789,847.656,-1000.000
1737965914.686,134.277,422.852,426.270,999.512,-141.602
1737965914.690,-1000.000,-870.605,-710.938,599.609,999.512
1737965914.694,-1000.000,-1000.000,-1000.000,-958.008,154.297
1737965914.698,142.578,-257.324,-511.719,-776.855,-980.957
1737965914.702,999.512,999.512,632.812,737.305,-1000.000
1737965914.706,549.316,699.707,603.027,999.512,-478.516
1737965914.710,-802.734,-718.750,-598.145,755.859,999.512
1737965914.713,-1000.000,-1000.000,-1000.000,-751.953,560.547
1737965914.717,-214.844,-580.566,-679.199,-967.285,-830.078
1737965914.721,999.512,888.672,554.688,586.914,-1000.000
1737965914.725,768.555,882.812,719.238,999.512,-750.000
1737965914.729,-634.766,-605.957,-568.359,843.262,805.176
1737965914.747,-1000.000,-1000.000,-1000.000,-635.254,785.645
1737965914.751,-582.520,-759.766,-732.910,-994.141,-743.164
1737965914.755,895.508,737.305,440.918,583.008,-1000.000
1737965914.759,900.391,942.871,757.812,999.512,-846.680
1737965914.763,-593.262,-613.770,-362.305,827.148,650.879
1737965914.767,-1000.000,-1000.000,-1000.000,-622.070,944.336
1737965914.771,-647.949,-755.371,-705.566,-843.262,-624.023
1737965914.774,789.062,644.043,351.074,595.703,-1000.000
1737965914.778,917.969,981.445,788.574,999.512,-875.000
1737965914.782,-601.074,-544.434,-65.430,890.625,604.492
1737965914.786,-1000.000,-1000.000,-925.781,-496.094,960.449
1737965914.790,-863.770,-852.539,-990.723,-1000.000,-625.488
1737965914.792,577.148,554.199,51.758,300.781,-1000.000
1737965914.796,999.512,999.512,791.016,999.512,-915.527
1737965914.800,-492.676,-360.352,-45.410,945.801,505.859
1737965914.804,-1000.000,-1000.000,-914.062,-266.113,999.512
1737965914.837,148.438,356.445,406.250,999.512,46.387
1737965914.841,-1000.000,-914.062,-718.262,441.895,999.512
1737965914.845,-1000.000,-1000.000,-1000.000,-1000.000,-55.664
1737965914.849,241.211,-96.191,-448.242,-763.184,-1000.000
