timestamps,TP9,AF7,AF8,TP10,Right AUX
1738235154.156,-13.184,23.926,73.730,-19.043,-324.219
1738235154.160,-17.090,-16.602,59.082,-14.648,-313.965
1738235154.164,-34.668,-38.086,47.363,-12.695,-258.301
1738235154.168,-37.109,-63.965,50.293,-13.672,-27.832
1738235154.172,-36.133,-34.180,45.410,-37.598,-129.883
1738235154.176,-30.273,3.906,22.461,-10.742,-191.406
1738235154.180,-19.043,27.832,16.113,13.184,-84.961
1738235154.183,-29.785,23.438,16.602,-16.113,-45.410
1738235154.187,-37.109,10.254,8.789,-39.062,460.938
1738235154.191,-40.527,85.449,15.625,-57.617,209.473
1738235154.195,-39.062,109.375,25.391,-44.434,-381.836
1738235154.199,-26.855,52.246,34.180,-17.578,-108.398
1738235154.202,-31.738,17.090,37.109,-6.348,331.055
1738235154.206,-46.875,35.156,34.668,-1.953,211.914
1738235154.210,-33.203,27.344,36.133,-19.531,-229.004
1738235154.214,-19.531,-7.812,35.645,-31.250,-294.922
1738235154.218,-16.602,4.395,32.715,-33.203,-197.754
1738235154.222,-33.203,-24.902,26.855,-23.926,-137.695
1738235154.226,-49.316,-61.523,15.137,-11.719,90.332
1738235154.229,-33.203,-41.016,14.648,-32.227,154.297
1738235154.233,-21.973,-31.250,17.090,-50.781,259.766
1738235154.237,-30.762,-33.203,18.066,-40.527,-175.781
1738235154.241,-30.273,-88.379,8.301,-16.602,-351.074
1738235154.245,-33.203,-126.953,2.930,-16.113,55.664
1738235154.261,-33.691,-79.590,9.277,-55.176,-62.012
1738235154.265,-22.949,-63.477,5.371,-62.012,-394.531
1738235154.269,-23.926,-78.613,3.906,-47.852,-310.059
1738235154.273,-43.457,-75.195,6.836,-35.645,-129.395
1738235154.277,-56.152,-86.914,12.207,-14.160,33.691
1738235154.281,-38.574,-80.078,17.578,-22.949,88.379
1738235154.285,-22.949,-74.707,32.715,-36.621,-153.809
1738235154.288,-17.090,-101.074,46.875,-38.574,144.531
1738235154.292,-18.555,-86.914,47.852,-33.203,250.000
1738235154.296,-32.227,-60.059,55.176,-12.695,-20.996
1738235154.300,-30.762,-34.180,63.965,-16.602,25.391
1738235154.304,-27.832,-10.254,73.242,-30.273,-13.672
1738235154.291,-29.785,-23.926,74.219,-42.969,-276.855
1738235154.295,-30.273,-67.871,68.848,-58.105,-386.719
1738235154.299,-40.527,-121.094,68.359,-30.273,-23.438
1738235154.303,-49.316,-115.234,73.242,-36.133,212.402
1738235154.307,-34.668,-88.379,83.984,-71.289,-195.312
1738235154.311,-21.484,-104.004,85.938,-63.477,-360.840
1738235154.315,-16.602,-95.215,82.031,-38.086,-7.812
1738235154.318,-24.414,-64.453,76.172,-7.812,276.855
1738235154.322,-40.039,-41.992,74.219,-23.926,86.426
1738235154.326,-28.809,-35.645,69.824,-57.129,-291.016
1738235154.330,-13.672,-68.848,69.336,-36.621,-117.676
1738235154.334,-20.996,-76.172,70.801,-24.902,364.258
1738235154.336,-35.645,-54.688,56.641,-21.973,112.793
1738235154.340,-32.715,-58.105,49.316,-22.461,6.836
1738235154.344,-30.273,-39.062,51.758,-46.387,-75.195
1738235154.348,-28.809,-18.066,45.898,-44.922,-353.027
1738235154.352,-24.414,-14.160,43.457,-29.785,-406.738
1738235154.356,-29.785,-44.922,42.969,0.488,23.926
1738235154.360,-30.273,-61.035,45.410,5.859,630.859
1738235154.363,-24.414,-17.578,38.574,-41.992,154.297
1738235154.367,-19.531,-19.043,24.414,-54.199,-381.836
1738235154.371,-15.625,-47.363,20.996,-37.109,-312.988
1738235154.375,-27.344,-71.777,19.043,-7.812,176.270
1738235154.379,-32.227,-66.895,9.766,-2.930,257.324
1738235154.396,-23.438,-49.805,8.301,-35.156,-219.727
1738235154.400,-18.066,-67.871,9.277,-43.945,-288.574
1738235154.404,-17.090,-74.219,14.160,-35.645,-50.293
1738235154.408,-26.367,-62.988,18.066,-25.879,-171.875
1738235154.412,-38.086,-74.707,18.555,-7.324,-44.922
1738235154.416,-30.762,-69.336,20.020,-23.438,39.551
1738235154.420,-24.414,-59.082,16.602,-30.762,-55.664
1738235154.423,-28.320,-55.664,12.207,-35.156,-139.648
1738235154.427,-20.020,-70.801,13.672,-23.438,-306.152
1738235154.431,-25.391,-99.121,15.625,7.812,159.180
1738235154.435,-28.320,-67.871,11.230,-15.137,408.691
1738235154.439,-20.508,-28.320,10.254,-47.852,-174.805
1738235154.456,-10.742,-37.109,12.695,-52.246,-366.211
1738235154.460,-7.812,-56.152,13.672,-26.855,-18.555
1738235154.464,-25.879,-52.246,7.324,0.000,196.289
1738235154.468,-18.555,-33.203,5.859,-12.207,-6.836
1738235154.472,-6.836,-20.996,16.602,-35.156,-219.238
1738235154.476,-16.113,-23.438,12.207,-41.992,-35.645
1738235154.480,-27.344,-21.973,1.465,-41.016,-54.199
1738235154.483,-35.645,-14.160,-1.953,-21.484,-43.945
1738235154.487,-26.855,-4.395,-10.254,-28.809,93.750
1738235154.491,-11.719,-1.465,-9.277,-36.621,239.746
1738235154.495,-10.254,20.020,-6.348,-41.016,-49.316
1738235154.499,-14.160,18.066,-0.488,-38.086,-277.344
1738235154.474,-25.391,-11.230,2.930,-5.859,88.379
1738235154.478,-47.363,-15.625,2.930,-14.160,641.113
1738235154.482,-44.922,24.902,7.812,-47.852,209.961
1738235154.486,-26.855,16.113,9.766,-35.645,-418.945
1738235154.490,-17.578,-19.043,2.441,-29.297,-324.219
1738235154.494,-22.461,-36.133,0.000,-20.996,82.520
1738235154.498,-38.574,-23.438,0.977,-21.484,252.441
1738235154.501,-34.180,5.371,1.953,-42.480,-166.016
1738235154.505,-20.020,-3.906,3.906,-29.297,-233.887
1738235154.509,-24.902,-5.371,6.348,-21.484,-174.316
1738235154.513,-27.832,-7.812,2.930,-23.926,-166.016
1738235154.517,-26.367,-9.766,-7.812,-27.832,-9.766
1738235154.531,-29.785,-20.508,-8.789,-44.922,62.988
1738235154.535,-41.504,-22.461,-2.441,-42.969,-16.602
1738235154.539,-35.645,-34.668,1.465,-21.484,-278.809
1738235154.543,-22.949,-80.566,2.930,-14.160,-190.430
1738235154.547,-33.203,-105.469,9.766,-23.438,493.652
1738235154.551,-44.434,-67.383,16.602,-51.270,641.113
1738235154.555,-41.016,-32.227,14.648,-55.664,-133.301
1738235154.558,-27.832,-48.828,17.090,-38.574,-341.309
1738235154.562,-22.461,-76.660,15.137,-24.414,197.266
1738235154.566,-38.574,-52.734,13.672,-22.461,247.070
1738235154.570,-28.320,-20.020,16.113,-44.922,-196.777
1738235154.574,-4.883,-33.203,15.625,-50.781,-151.367
1738235154.576,-22.461,-42.480,21.484,-44.922,51.270
1738235154.580,-39.062,-32.715,26.855,-30.273,-161.133
1738235154.584,-33.691,-46.387,35.645,-12.695,-85.449
1738235154.588,-25.879,-38.086,41.992,-36.621,-88.379
1738235154.592,-19.531,-22.461,39.551,-46.387,-301.758
1738235154.596,-21.484,-33.203,46.387,-39.062,-258.789
1738235154.600,-27.832,-43.457,52.734,-36.133,-220.703
1738235154.603,-36.621,-69.824,43.457,-22.949,197.754
1738235154.607,-30.762,-58.594,41.992,-41.016,667.480
1738235154.611,-18.066,-9.766,42.480,-53.223,0.488
1738235154.615,-15.137,-32.715,37.598,-41.016,-437.988
1738235154.619,-33.691,-67.383,37.598,-39.062,-228.027
1738235154.681,-50.781,-62.500,42.969,-23.926,-42.480
1738235154.685,-42.969,-39.551,48.340,-28.809,-70.312
1738235154.689,-27.832,-31.250,42.480,-51.758,-271.484
1738235154.693,-23.926,-40.039,28.320,-42.480,-257.812
1738235154.697,-27.832,-41.016,28.320,-29.297,-272.461
1738235154.701,-32.227,-56.641,31.738,-3.906,36.621
1738235154.705,-32.715,-56.641,35.156,-8.301,279.297
1738235154.708,-27.344,-45.410,38.086,-33.691,278.320
1738235154.712,-28.320,0.977,26.855,-33.203,-13.672
1738235154.716,-25.391,27.832,13.672,-37.109,-357.910
1738235154.720,-25.391,-6.348,12.207,-17.090,-41.016
1738235154.724,-40.039,5.859,6.348,-23.438,280.762
1738235154.685,-41.016,56.152,4.883,-63.477,-121.094
1738235154.689,-33.691,45.410,6.348,-49.805,-395.508
1738235154.693,-31.250,15.137,-1.465,-28.809,-229.004
1738235154.697,-35.645,3.906,-4.883,-14.160,31.738
1738235154.701,-41.504,-1.465,-2.930,-17.090,32.715
1738235154.705,-29.297,19.531,-0.977,-41.992,-118.652
1738235154.709,-23.438,25.391,-4.883,-43.945,-58.105
1738235154.712,-23.926,21.484,-13.184,-36.621,-80.078
1738235154.716,-25.391,3.906,-20.996,-26.367,-138.672
1738235154.720,-44.922,12.695,-28.809,-21.973,-88.867
1738235154.724,-48.828,41.504,-24.902,-36.133,135.742
1738235154.728,-34.180,69.336,-21.484,-32.715,423.828
1738235154.726,-34.180,113.770,-18.555,-44.434,-135.254
1738235154.730,-34.180,85.449,-8.301,-47.363,-207.520
1738235154.734,-41.992,50.293,0.000,-30.762,282.715
1738235154.738,-45.410,84.473,0.000,-44.922,-51.270
1738235154.742,-23.438,94.238,1.465,-44.922,-392.090
1738235154.746,-12.695,75.195,4.883,-28.320,-154.297
1738235154.750,-19.043,72.754,0.977,-19.531,116.211
1738235154.753,-28.809,84.473,1.953,-26.367,126.465
1738235154.757,-26.855,103.516,11.719,-37.109,-153.320
1738235154.761,0.977,87.891,13.672,-35.156,-348.145
1738235154.765,17.090,48.340,8.301,-8.789,177.734
1738235154.769,-4.883,43.945,3.906,-4.883,801.758
1738235154.771,-32.227,62.012,5.371,-23.438,730.469
1738235154.775,-38.574,95.215,9.277,-39.551,173.340
1738235154.779,-33.203,104.004,7.812,-47.363,-139.160
1738235154.783,-30.762,76.660,0.977,-34.668,-350.586
1738235154.787,-24.414,36.621,-5.371,-28.320,-407.227
1738235154.791,-28.809,-10.254,-15.625,-12.695,2.441
1738235154.795,-36.133,-4.395,-15.137,-13.184,179.199
1738235154.798,-36.621,37.598,-6.348,-41.016,-218.750
1738235154.802,-45.410,34.180,-5.371,-42.480,-451.172
1738235154.806,-42.969,-7.324,0.000,-22.461,-104.492
1738235154.810,-42.969,-10.742,17.090,-18.066,441.895
1738235154.814,-41.504,32.227,43.945,-29.297,83.984
1738235154.862,-19.531,28.809,62.988,-33.691,-328.125
1738235154.866,-10.742,9.277,55.176,-34.668,-226.562
1738235154.870,-27.344,1.465,40.527,-30.762,-228.027
1738235154.874,-42.969,-43.945,39.062,-9.766,-76.660
1738235154.878,-45.410,-62.012,40.039,-10.254,86.426
1738235154.882,-42.480,-34.180,28.320,-34.668,235.840
1738235154.886,-28.320,3.418,25.879,-42.480,67.871
1738235154.889,-23.926,14.648,31.250,-26.855,-301.758
1738235154.893,-42.480,-33.203,24.902,-19.531,-98.633
1738235154.897,-51.270,-66.406,20.996,-20.508,454.590
1738235154.901,-36.621,-20.996,25.879,-26.367,150.879
1738235154.905,-31.250,-12.695,25.391,-38.086,-353.027
1738235154.866,-28.809,-50.293,21.484,-41.992,-229.492
1738235154.870,-20.020,-91.309,37.598,-28.809,158.203
1738235154.874,-36.133,-100.586,61.035,-25.391,104.980
1738235154.878,-33.203,-88.867,67.383,-39.062,-284.668
1738235154.882,-16.602,-103.027,65.430,-41.016,-302.734
1738235154.886,-20.508,-121.094,68.359,-34.668,-124.512
1738235154.890,-26.855,-126.953,66.406,-27.832,-42.969
1738235154.893,-26.367,-126.953,60.547,-27.832,118.652
1738235154.897,-21.973,-105.469,59.082,-47.363,143.066
1738235154.901,-16.113,-84.961,51.270,-49.316,-124.512
1738235154.905,-17.090,-84.473,41.992,-41.016,-382.812
1738235154.909,-13.184,-111.328,41.016,-21.484,-229.492
1738235154.906,-18.555,-134.277,39.062,-3.906,214.844
1738235154.910,-28.320,-102.539,42.480,-24.414,20.996
1738235154.914,-24.414,-87.891,50.781,-39.062,-368.652
1738235154.918,-16.602,-101.074,54.688,-22.461,-286.133
1738235154.922,-23.926,-123.535,48.340,-3.906,8.789
1738235154.926,-31.738,-127.441,39.062,-11.719,214.355
1738235154.930,-23.438,-98.145,39.551,-42.480,17.578
1738235154.933,-14.648,-92.285,37.598,-54.199,-291.992
1738235154.937,-17.090,-123.535,26.367,-36.133,150.391
1738235154.941,-16.602,-135.254,21.484,-12.207,668.945
1738235154.945,-20.020,-128.418,28.320,-2.441,803.223
1738235154.949,-39.551,-75.684,30.762,-30.762,430.664
1738235154.951,-31.738,-44.434,34.180,-49.805,-185.059
1738235154.955,-14.160,-53.223,34.668,-37.109,-416.016
1738235154.959,-19.043,-72.754,31.738,-28.809,-367.188
1738235154.963,-28.809,-92.773,34.180,-10.254,-17.090
1738235154.967,-19.531,-78.613,28.809,-19.043,64.453
1738235154.971,-0.977,-67.383,17.090,-23.926,-125.977
1738235154.975,-5.371,-64.941,11.719,-15.625,-209.473
1738235154.978,-16.113,-82.520,9.766,-20.996,-146.973
1738235154.982,-27.344,-96.680,11.230,1.465,369.141
1738235154.986,-30.762,-60.059,14.160,-0.977,72.266
1738235154.990,-21.484,-55.664,-1.465,-17.578,-377.441
1738235154.994,-18.066,-74.707,-18.066,-7.324,-183.105
1738235154.998,-14.648,-62.988,-22.949,-6.348,-236.816
1738235155.002,-22.461,-66.895,-36.621,-1.465,-235.352
1738235155.006,-29.785,-62.500,-49.316,-11.230,-10.742
1738235155.010,-22.461,-35.156,-53.711,-32.715,-112.793
1738235155.014,-22.949,-19.531,-60.059,-30.273,-316.406
1738235155.018,-19.531,-35.645,-63.477,-16.113,-186.035
1738235155.022,-22.949,-65.430,-61.523,4.883,273.926
1738235155.025,-30.762,-66.406,-60.059,-5.371,505.859
1738235155.029,-20.996,-24.414,-52.734,-34.668,-32.227
1738235155.033,-14.648,-20.508,-56.152,-35.156,-402.344
1738235155.037,-17.090,-50.781,-61.035,-24.902,-263.184
1738235155.041,-21.484,-72.754,-65.430,-5.371,195.312
1738235155.072,-26.855,-62.500,-64.941,-19.043,166.992
1738235155.076,-22.461,-45.898,-61.035,-49.805,-204.590
1738235155.080,-20.996,-39.062,-61.523,-47.852,-233.887
1738235155.084,-26.855,-44.922,-61.523,-23.926,289.062
1738235155.088,-33.203,-25.879,-70.801,-11.719,443.848
1738235155.092,-46.387,-9.277,-76.172,-22.461,137.207
1738235155.096,-45.898,-0.488,-68.848,-43.945,98.633
1738235155.099,-33.203,20.508,-67.871,-46.875,16.113
1738235155.103,-24.902,27.344,-67.871,-34.180,-328.613
1738235155.107,-23.926,-4.395,-70.312,-16.113,-355.957
1738235155.111,-36.621,-37.598,-75.195,-19.043,82.520
1738235155.115,-35.645,-3.418,-66.406,-26.855,11.230
1738235155.086,-23.926,5.859,-65.430,-36.133,-373.047
1738235155.090,-23.926,-35.156,-73.242,-48.340,-374.512
1738235155.094,-31.738,-74.219,-69.824,-39.551,-91.797
1738235155.098,-41.504,-82.031,-65.918,-26.367,102.539
1738235155.102,-40.527,-59.570,-64.941,-44.922,-55.176
1738235155.106,-37.109,-49.805,-73.242,-45.898,-85.449
1738235155.110,-39.551,-48.828,-75.195,-29.297,241.211
1738235155.113,-33.203,-35.645,-62.500,-19.043,-3.906
1738235155.117,-38.086,-54.199,-57.129,-9.277,-110.840
1738235155.121,-46.875,-63.965,-47.852,-25.879,-61.523
1738235155.125,-35.645,-52.246,-42.969,-41.992,-90.332
1738235155.129,-25.879,-37.109,-47.363,-40.039,-101.562
1738235155.131,-26.367,-31.738,-34.668,-31.738,-247.559
1738235155.135,-34.180,-65.918,-23.926,-10.742,-50.293
1738235155.139,-31.738,-86.426,-19.531,-21.973,588.379
1738235155.143,-33.203,-48.340,-15.625,-47.852,522.949
1738235155.191,-35.156,-121.582,-55.176,-25.391,-86.426
1738235155.195,-11.719,-116.211,-47.852,-39.062,-43.945
1738235155.199,-14.648,-103.516,-44.434,-42.480,-222.168
1738235155.203,-32.715,-112.793,-41.992,-31.250,-410.645
1738235155.207,-41.016,-149.902,-44.922,-11.230,-118.164
1738235155.211,-45.898,-157.715,-44.434,-18.066,310.547
1738235155.215,-45.410,-118.164,-46.875,-46.875,67.871
1738235155.218,-28.320,-100.098,-47.852,-49.805,-293.945
1738235155.222,-22.949,-121.094,-42.969,-32.227,-261.230
1738235155.226,-31.250,-156.250,-42.480,-7.812,412.109
1738235155.230,-41.992,-125.977,-31.738,-18.066,479.492
1738235155.234,-45.898,-90.332,-27.344,-49.316,-94.238
1738235155.236,-29.297,-105.957,-25.391,-49.805,-217.773
1738235155.240,-15.137,-120.117,-22.461,-41.016,-23.926
1738235155.244,-24.902,-120.117,-18.555,-22.949,-91.797
1738235155.248,-36.133,-128.418,-15.137,-12.695,-101.562
1738235155.252,-35.156,-104.980,-8.789,-31.250,-104.492
1738235155.256,-31.738,-82.031,-2.441,-38.086,-87.402
1738235155.260,-31.250,-70.312,-4.883,-30.273,-97.168
1738235155.263,-26.367,-68.359,-1.953,-28.320,-162.109
1738235155.267,-31.738,-79.102,12.207,-24.414,178.223
1738235155.271,-33.203,-48.828,29.785,-37.109,227.539
1738235155.275,-30.273,-32.227,35.156,-40.039,-272.461
1738235155.279,-26.855,-54.688,36.133,-41.504,-373.047
1738235155.281,-34.180,-83.496,37.598,-29.297,63.477
1738235155.285,-35.156,-64.453,39.062,-13.184,420.898
1738235155.289,-27.344,-16.113,45.898,-47.363,-32.227
1738235155.293,-40.039,-15.625,48.340,-54.688,-339.355
1738235155.297,-28.809,-27.344,48.828,-42.480,-240.234
1738235155.301,-18.555,-34.668,46.387,-40.039,-60.059
1738235155.305,-35.156,-45.410,41.016,-21.973,96.191
1738235155.308,-37.598,-44.922,40.527,-43.457,-16.602
1738235155.312,-29.785,-59.570,41.016,-59.570,244.629
1738235155.316,-33.691,-31.738,40.527,-46.875,64.453
1738235155.320,-52.734,-24.414,34.180,-35.156,-313.477
1738235155.324,-54.199,-52.246,29.297,-13.184,137.207
1738235155.327,-39.062,-19.531,35.645,-28.320,378.418
1738235155.331,-26.855,30.273,38.086,-56.641,-173.340
1738235155.335,-15.137,26.855,30.273,-35.645,-409.180
1738235155.339,-16.602,0.977,27.832,-33.203,-260.254
1738235155.343,-28.809,-16.602,23.926,-29.785,59.570
1738235155.347,-49.316,-16.113,16.113,-23.438,211.914
1738235155.351,-50.293,-6.836,13.184,-47.363,-103.516
1738235155.354,-34.668,-19.531,6.836,-36.133,-185.547
1738235155.358,-26.367,-18.066,2.930,-22.461,90.332
1738235155.362,-42.969,-12.207,-1.465,-32.715,-17.578
1738235155.366,-50.293,-31.250,-5.371,-36.133,-97.168
1738235155.370,-28.809,-38.574,-0.977,-35.645,-77.148
1738235155.371,-20.508,-31.250,-7.324,-36.621,-221.191
1738235155.375,-16.113,-37.109,-17.578,-57.617,-398.926
1738235155.379,-22.949,-73.730,-25.879,-50.293,-173.828
1738235155.383,-39.551,-84.473,-28.320,-39.062,162.109
1738235155.387,-32.715,-56.641,-22.949,-47.363,31.250
1738235155.391,-35.645,-48.828,-27.344,-45.410,-125.000
1738235155.395,-33.203,-64.941,-30.762,-50.781,-83.008
1738235155.398,-37.109,-120.605,-33.691,-28.320,414.062
1738235155.402,-50.293,-110.352,-37.109,-22.461,581.055
1738235155.406,-39.062,-63.477,-32.715,-53.711,-124.512
1738235155.410,-29.785,-79.102,-30.273,-48.828,-302.734
1738235155.414,-21.484,-85.449,-32.715,-31.738,-44.434
1738235155.415,-21.973,-79.590,-34.180,-23.438,-86.426
1738235155.419,-27.832,-81.055,-35.156,-15.137,-71.777
1738235155.423,-29.785,-63.965,-32.227,-42.480,-101.074
1738235155.427,-25.391,-32.227,-23.438,-64.941,-144.043
1738235155.431,-18.555,-27.832,-18.066,-46.387,-242.188
1738235155.435,-18.066,-59.570,-19.043,-20.508,-160.156
1738235155.439,-24.414,-84.961,-18.555,-14.648,338.867
1738235155.442,-33.203,-66.406,-16.602,-31.250,684.082
1738235155.446,-39.062,-26.855,-14.648,-37.598,-65.430
1738235155.450,-32.227,-40.039,-8.789,-22.461,-447.266
1738235155.454,-29.297,-79.590,-5.371,-14.160,-112.305
1738235155.458,-40.039,-84.473,-4.395,-18.555,27.832
1738235155.475,-34.668,-45.410,-3.906,-41.504,-165.527
1738235155.479,-20.996,-5.371,-4.395,-41.504,-352.051
1738235155.483,-7.324,-1.465,-8.789,-14.648,-157.227
1738235155.487,1.465,4.395,-5.371,-9.766,-105.469
1738235155.491,-26.855,-0.977,3.906,-19.531,-118.652
1738235155.495,-43.945,2.441,6.348,-33.203,71.777
1738235155.499,-34.668,2.441,6.836,-46.387,392.578
1738235155.502,-42.969,25.391,10.254,-45.410,70.312
1738235155.506,-40.039,27.832,7.812,-38.574,-367.676
1738235155.510,-46.875,-14.160,-5.859,-27.832,89.844
1738235155.514,-54.688,-17.090,-4.395,-34.668,566.895
1738235155.518,-34.668,10.742,9.766,-58.105,116.699
1738235155.505,-35.645,5.859,14.160,-65.918,-390.625
1738235155.509,-43.457,-34.180,7.324,-47.363,-241.211
1738235155.513,-52.246,-69.336,1.465,-18.555,283.691
1738235155.517,-46.875,-44.434,6.348,-38.086,96.680
1738235155.521,-29.297,-18.555,11.719,-72.266,-307.129
1738235155.525,-21.484,-24.414,14.648,-62.012,-117.188
1738235155.529,-16.113,-17.090,21.484,-31.738,14.648
1738235155.532,-32.227,-25.391,23.926,-10.742,-30.273
1738235155.536,-51.270,-28.809,24.902,-28.320,-104.980
1738235155.540,-38.574,-24.902,25.391,-45.898,-32.715
1738235155.544,-25.391,-14.648,22.949,-40.527,167.969
1738235155.548,-31.738,-9.277,22.949,-29.297,-135.742
1738235155.581,-40.039,-46.875,15.137,-7.812,-112.793
1738235155.585,-43.945,-55.176,12.207,-7.324,245.117
1738235155.589,-19.043,-10.742,15.137,-50.293,18.555
1738235155.593,1.465,5.371,12.207,-68.848,-346.680
1738235155.597,-11.719,-8.301,14.648,-44.922,-295.410
1738235155.601,-34.668,-30.273,5.859,-14.160,144.043
1738235155.605,-38.086,-24.414,-14.160,1.953,262.695
1738235155.608,-5.859,12.695,-12.207,-18.066,-138.184
1738235155.612,3.906,10.742,-2.441,-21.973,-208.496
1738235155.616,-18.066,-2.441,2.930,-14.648,-78.125
1738235155.620,-57.129,-29.297,7.324,-9.766,-68.359
1738235155.624,-66.406,-63.965,6.836,1.465,108.887
1738235155.612,-46.875,-54.688,8.789,-36.133,53.711
1738235155.616,-48.340,-74.219,10.254,-69.824,325.684
1738235155.620,-58.105,-73.242,5.859,-81.543,279.297
1738235155.624,-76.172,-79.590,-2.441,-79.590,-204.102
1738235155.628,-93.262,-118.164,-3.418,-53.711,9.766
1738235155.632,-91.309,-105.957,-5.859,-47.363,193.359
1738235155.636,-96.191,-83.008,-16.113,-62.988,-94.727
1738235155.639,-86.426,-92.773,-21.484,-57.129,-283.691
1738235155.643,-78.125,-123.047,-16.113,-49.316,-173.340
1738235155.647,-104.004,-129.883,-15.137,-61.035,72.754
1738235155.651,-104.980,-110.352,-24.902,-59.570,-104.980
1738235155.655,-77.637,-99.121,-39.551,-75.684,-395.508
1738235155.656,-68.848,-105.469,-59.082,-92.773,-129.395
1738235155.660,-87.891,-100.586,-76.660,-82.031,100.098
1738235155.664,-94.238,-102.539,-96.191,-41.992,-74.219
1738235155.668,-84.473,-84.473,-118.164,-37.109,-66.895
1738235155.672,-65.430,-56.641,-138.184,-46.875,103.516
1738235155.676,-57.617,-20.996,-157.715,-49.805,90.332
1738235155.680,-59.082,4.395,-178.223,-62.012,-44.434
1738235155.683,-62.988,-9.766,-188.477,-40.527,33.691
1738235155.687,-63.965,-10.742,-182.617,-17.578,456.055
1738235155.691,-38.574,48.828,-173.828,-13.672,296.875
1738235155.695,-20.508,67.383,-178.711,-11.230,-260.254
1738235155.699,-30.273,43.945,-190.430,-24.902,-147.461
1738235155.701,-36.133,47.363,-187.500,-34.180,82.031
1738235155.705,-29.785,68.848,-182.129,-32.227,-9.766
1738235155.709,-16.602,97.656,-168.457,-24.414,-334.473
1738235155.713,-11.719,95.703,-155.762,-7.812,-325.684
1738235155.717,-8.301,87.402,-153.320,-6.348,-41.504
1738235155.721,-16.113,72.266,-145.020,0.977,69.336
1738235155.725,-12.695,57.129,-122.070,0.977,36.133
1738235155.728,16.113,58.105,-107.422,-12.695,13.672
1738235155.732,16.602,38.086,-98.145,-13.184,433.105
1738235155.736,-8.789,62.500,-79.102,-12.695,-4.395
1738235155.740,-34.668,51.270,-64.453,9.766,-298.828
1738235155.744,-48.340,29.785,-65.430,18.555,65.430
1738235155.746,-34.668,97.168,-60.547,-3.418,-149.902
1738235155.750,-17.090,129.883,-60.059,-9.277,-414.551
1738235155.754,-16.113,111.328,-61.523,-4.883,-374.512
1738235155.758,-16.602,96.191,-58.105,1.465,-98.633
1738235155.762,-22.461,118.164,-51.758,-18.066,50.293
1738235155.766,-15.137,163.086,-45.410,-43.457,-145.996
1738235155.770,-4.395,170.410,-43.457,-25.391,-134.277
1738235155.773,-9.277,158.691,-43.457,-17.090,215.820
1738235155.777,-11.719,215.332,-52.246,-20.020,111.816
1738235155.781,-15.137,228.516,-65.918,-13.184,-46.387
1738235155.785,-8.789,222.168,-58.594,-39.062,108.887
1738235155.789,20.996,252.930,-31.738,-48.340,109.375
1738235155.791,54.688,248.047,-14.648,-36.621,-223.145
1738235155.795,51.758,238.770,-23.438,-38.086,-343.750
1738235155.799,41.016,233.398,-35.645,-10.742,64.941
1738235155.803,45.898,268.066,-25.391,10.254,460.938
1738235155.807,47.363,352.539,-8.301,-12.695,-39.062
1738235155.811,39.551,366.699,-19.531,-33.691,-295.898
1738235155.815,21.973,336.914,-45.898,-33.203,43.945
1738235155.818,-21.484,335.938,-73.242,-17.578,474.609
1738235155.822,-62.012,443.848,-76.660,-20.996,49.805
1738235155.826,-83.008,516.113,-48.828,-14.648,-372.070
1738235155.830,-46.875,508.301,-35.645,7.324,-241.699
1738235155.834,-17.578,546.875,-25.879,-4.883,-248.535
1738235155.852,-33.203,556.152,-9.277,8.301,-20.996
1738235155.856,-11.719,507.324,-4.883,-19.043,15.137
1738235155.860,15.625,457.031,16.602,-51.270,-61.523
1738235155.864,-11.230,424.316,41.016,-49.316,-169.922
1738235155.868,-22.461,363.281,69.824,-42.480,-377.930
1738235155.872,-0.488,253.906,73.730,-50.293,-5.371
1738235155.876,16.113,227.051,55.176,-95.215,534.180
1738235155.879,-23.438,274.414,83.008,-146.973,144.043
1738235155.883,-60.547,264.648,113.770,-174.316,-425.781
1738235155.887,-30.273,297.363,100.098,-167.480,-342.773
1738235155.891,-85.938,342.773,92.773,-167.969,-61.035
1738235155.895,-127.441,351.074,107.910,-168.457,116.699
1738235155.896,-119.141,400.879,113.281,-190.918,-193.848
1738235155.900,-142.090,363.770,96.680,-209.961,-298.340
1738235155.904,-138.184,314.453,58.105,-220.215,80.566
1738235155.908,-182.129,337.891,31.250,-219.238,-5.859
1738235155.912,-199.219,271.973,29.297,-223.145,-134.277
1738235155.916,-185.547,300.293,30.762,-237.305,17.090
1738235155.920,-190.918,349.121,19.043,-220.703,50.293
1738235155.923,-183.594,276.367,-6.348,-197.754,-192.383
1738235155.927,-157.227,210.938,-28.320,-195.801,-329.590
1738235155.931,-129.395,148.438,-45.898,-156.738,17.090
1738235155.935,-117.676,127.930,-29.785,-127.441,398.926
1738235155.939,-91.797,156.250,-8.301,-132.812,-93.750
1738235155.940,-77.148,127.441,-28.809,-126.465,-396.484
1738235155.944,-56.152,75.684,-55.664,-111.816,-182.129
1738235155.948,-17.090,-4.883,-60.059,-99.609,-68.359
1738235155.952,-17.578,-86.426,-51.758,-104.492,-244.629
1738235155.956,2.930,-160.156,-27.344,-84.473,-307.617
1738235155.960,-5.371,-183.594,-2.930,-61.035,60.059
1738235155.964,6.836,-181.641,-13.184,-43.457,43.945
1738235155.967,40.039,-208.008,-14.648,-46.875,-162.109
1738235155.971,26.855,-230.957,-5.371,-42.480,-246.582
1738235155.975,-24.414,-286.621,6.836,-27.344,153.320
1738235155.979,-40.527,-306.152,26.367,-39.551,274.414
1738235155.983,-2.441,-318.359,34.668,-38.574,-115.234
1738235155.986,12.695,-350.098,54.688,-42.480,-217.285
1738235155.990,1.953,-310.547,100.586,-32.227,-19.043
1738235155.994,-12.695,-274.414,131.348,-21.484,-187.500
1738235155.998,10.742,-298.340,158.691,-13.184,-301.758
1738235156.002,84.961,-324.219,159.668,-16.113,-147.461
1738235156.006,134.277,-352.051,154.785,-46.387,-73.730
1738235156.010,46.387,-342.285,178.223,-30.762,-133.301
1738235156.013,-46.387,-305.664,204.590,6.348,-115.234
1738235156.017,-2.930,-280.762,228.516,-4.395,71.777
1738235156.021,59.570,-280.273,245.605,-17.090,446.777
1738235156.025,40.527,-268.555,266.113,-34.668,-45.898
1738235156.029,32.715,-239.258,275.391,-28.320,-489.746
1738235156.030,58.594,-196.777,286.133,-4.395,-151.367
1738235156.034,36.621,-179.688,314.453,-3.418,-49.316
1738235156.038,4.883,-204.590,318.359,-12.207,-120.117
1738235156.042,0.977,-233.398,301.758,-42.480,-293.945
1738235156.046,24.414,-218.750,320.312,-11.719,-364.746
1738235156.050,3.906,-184.082,353.027,33.203,-145.020
1738235156.054,-20.508,-193.848,376.465,20.508,62.988
1738235156.057,-46.387,-219.238,385.254,-3.906,102.051
1738235156.061,-42.969,-249.512,358.398,-48.340,200.195
1738235156.065,-34.180,-211.426,356.445,-61.035,-91.797
1738235156.069,-50.293,-162.109,371.582,-14.160,-197.266
1738235156.073,-51.758,-160.645,373.535,10.254,139.648
1738235156.091,-45.410,-171.387,364.258,2.441,546.387
1738235156.095,-25.879,-164.062,357.422,-47.363,69.824
1738235156.099,-5.371,-146.973,357.910,-70.801,-572.754
1738235156.103,-27.344,-125.000,346.680,-27.344,-306.152
1738235156.107,-21.973,-115.234,323.242,-20.508,27.344
1738235156.111,-18.066,-124.512,304.199,-26.367,236.328
1738235156.115,-78.613,-148.926,288.086,-54.688,-18.555
1738235156.118,-64.941,-179.199,284.180,-75.684,-343.750
1738235156.122,-33.203,-156.738,296.875,-10.742,127.930
1738235156.126,-57.129,-115.723,300.293,9.766,62.988
1738235156.130,-84.961,-123.047,294.922,-10.254,-38.574
1738235156.134,-37.109,-148.926,291.016,-45.898,13.184
1738235156.121,37.109,-135.254,285.645,-84.473,-397.949
1738235156.125,-6.836,-88.379,296.387,-37.598,-410.156
1738235156.129,-56.641,-75.195,315.918,-0.488,-42.480
1738235156.133,-46.387,-81.055,322.754,6.836,364.746
1738235156.137,-41.992,-75.684,328.125,-17.578,183.594
1738235156.141,-38.574,-95.703,334.473,-69.824,-459.473
1738235156.145,-61.523,-68.848,360.840,-20.508,-232.910
1738235156.148,-69.336,-29.785,379.883,37.598,312.500
1738235156.152,-59.082,-42.969,377.930,8.301,284.180
1738235156.156,-37.598,-69.824,381.348,-25.879,-15.137
1738235156.160,-38.574,-103.027,364.746,-67.383,-400.879
1738235156.164,-31.250,-97.656,338.379,-41.016,239.746
1738235156.166,-27.344,-34.668,326.172,3.418,595.703
1738235156.170,-38.086,-12.695,301.758,0.977,117.676
1738235156.174,-41.016,-31.738,274.414,-19.531,81.543
1738235156.178,-26.855,-33.203,270.996,-67.871,-198.730
1738235156.211,-55.664,62.988,168.457,-17.578,-0.977
1738235156.215,5.859,32.715,168.457,-73.242,-345.215
1738235156.219,-1.953,40.039,171.387,-91.797,-550.293
1738235156.223,-55.176,65.430,174.316,-25.879,-255.371
1738235156.227,-73.242,52.734,182.129,-1.465,18.066
1738235156.231,-77.148,25.391,187.500,-14.160,211.914
1738235156.235,-58.105,-22.461,182.129,-46.387,409.668
1738235156.238,-64.453,-8.301,163.574,-72.754,-44.922
1738235156.242,-68.359,34.668,148.926,-29.785,-294.922
1738235156.246,-42.969,-4.395,144.531,8.301,89.844
1738235156.250,-35.156,-39.062,133.789,-1.953,490.723
1738235156.254,-55.664,-31.738,122.070,-54.199,162.598
1738235156.257,-70.312,-36.133,128.418,-91.309,-593.262
1738235156.261,-59.082,-31.250,139.160,-36.133,-307.617
1738235156.265,-18.066,-20.020,124.512,0.488,362.793
1738235156.269,-40.039,-20.020,106.934,-15.137,224.609
1738235156.273,-94.727,-51.270,97.656,-44.434,-208.984
1738235156.277,-81.055,-69.824,96.680,-64.941,-329.102
1738235156.281,-48.828,-26.855,96.191,-17.090,87.402
1738235156.284,7.324,4.395,91.309,-12.207,183.594
1738235156.288,25.391,-0.488,95.703,-46.387,139.160
1738235156.292,-18.555,-41.992,95.215,-75.195,145.508
1738235156.296,-40.039,-66.895,88.867,-107.422,-187.012
1738235156.300,-102.051,-26.855,83.496,-65.918,-468.262
1738235156.304,-135.742,-20.996,84.961,-13.672,-135.254
1738235156.308,-77.148,-31.738,66.895,-5.859,205.078
1738235156.312,-59.570,-36.621,44.922,-32.715,11.719
1738235156.316,-55.664,-55.664,46.387,-81.055,-530.273
1738235156.320,-37.598,-32.227,47.363,-31.250,-386.230
1738235156.324,-40.527,-17.090,45.898,9.766,298.340
1738235156.328,-44.922,-27.832,35.645,0.000,468.750
1738235156.331,-13.184,-41.016,32.227,-1.465,117.676
1738235156.335,-17.090,-78.125,36.621,-44.434,-401.367
1738235156.339,-63.965,-89.355,39.551,-59.082,-108.398
1738235156.343,-65.430,-66.895,44.434,-41.016,208.008
1738235156.347,-52.246,-83.984,38.574,-48.828,141.602
1738235156.361,-59.082,-121.582,24.902,-60.547,91.797
1738235156.365,-46.387,-135.254,16.113,-91.797,-319.824
1738235156.369,-25.879,-119.629,20.020,-64.941,-459.473
1738235156.373,26.367,-96.680,18.066,0.488,-128.418
1738235156.377,16.602,-117.188,18.066,33.203,180.176
1738235156.381,-110.840,-156.250,17.578,11.230,829.590
1738235156.385,-85.938,-149.414,6.836,-68.848,302.246
1738235156.388,-32.715,-125.977,11.719,-65.430,-602.051
1738235156.392,-86.914,-119.141,30.273,21.973,-177.734
1738235156.396,-100.098,-99.121,42.969,48.340,201.660
1738235156.400,-64.453,-92.285,52.734,31.250,31.250
1738235156.404,-18.555,-125.977,61.523,-8.301,-353.027
1738235156.406,-0.488,-120.117,72.754,-39.551,-407.715
1738235156.410,-1.953,-82.031,84.473,3.418,-95.215
1738235156.414,-28.320,-77.637,93.262,37.109,9.766
1738235156.418,-66.895,-100.098,103.027,43.457,55.176
1738235156.422,-31.738,-145.508,103.516,28.809,48.828
1738235156.426,-11.719,-141.602,109.375,20.996,-261.719
1738235156.430,-35.645,-107.422,120.117,68.359,-227.539
1738235156.433,-24.902,-110.352,122.070,79.590,107.422
1738235156.437,2.441,-125.000,119.629,38.574,521.484
1738235156.441,20.996,-118.164,118.164,-7.812,234.863
1738235156.445,11.719,-125.000,122.559,-31.738,-525.391
1738235156.449,-24.902,-116.699,125.488,18.066,-231.934
1738235156.451,-24.414,-105.469,128.906,74.707,382.324
1738235156.455,17.578,-86.914,129.395,78.613,224.121
1738235156.459,31.738,-99.121,119.629,20.508,-116.699
1738235156.463,2.441,-116.699,113.281,-35.156,-317.383
1738235156.467,-21.973,-69.336,113.281,8.301,-181.641
1738235156.471,-18.555,-53.223,110.840,44.922,205.566
1738235156.475,9.277,-63.965,104.492,33.691,261.719
1738235156.478,31.738,-88.379,96.191,6.836,120.117
1738235156.482,3.906,-105.469,87.891,-35.156,88.379
1738235156.486,-38.086,-59.082,86.426,-25.879,-265.625
1738235156.490,-37.109,-47.852,89.844,9.766,-208.008
1738235156.494,-5.859,-63.965,85.449,23.438,68.359
1738235156.496,-8.301,-62.988,82.031,20.020,-74.707
1738235156.500,-13.184,-56.641,83.496,-18.066,-424.805
1738235156.504,-4.395,-29.785,81.055,-7.324,-395.508
1738235156.508,1.465,-10.254,76.172,19.043,-31.250
1738235156.512,10.742,-13.184,62.012,-4.883,51.758
1738235156.516,33.691,-27.344,47.363,-26.367,-3.906
1738235156.520,31.250,-55.176,41.992,-31.738,-134.277
1738235156.523,-13.672,-62.500,37.109,-4.883,248.535
1738235156.527,-21.973,-14.648,34.668,21.484,533.203
1738235156.531,-14.160,-2.441,25.879,5.371,12.695
1738235156.535,-13.672,-34.668,17.578,-12.695,-43.945
1738235156.539,7.324,-49.316,10.254,-31.738,52.734
1738235156.542,12.695,-35.645,11.230,-21.484,-251.953
1738235156.546,21.973,-24.414,9.766,-5.371,-267.578
1738235156.550,24.902,-33.203,5.859,-11.230,10.254
1738235156.554,-7.324,-38.086,6.348,-4.883,151.855
1738235156.558,-20.508,-54.688,-3.906,-12.695,-166.504
1738235156.562,-16.113,-53.711,-2.441,-0.977,-226.562
1738235156.566,-16.602,-41.016,3.906,21.973,190.918
1738235156.569,-3.418,-44.434,-3.906,22.461,441.406
1738235156.573,33.691,-43.945,-14.160,-21.484,160.645
1738235156.577,56.152,-66.895,-22.949,-63.965,-221.680
1738235156.581,25.391,-80.078,-25.391,-46.387,-202.637
1738235156.585,4.883,-42.969,-20.508,-7.324,77.637
1738235156.587,-10.254,-23.926,-18.555,20.508,-113.770
1738235156.591,-17.090,-46.875,-20.996,41.504,-130.371
1738235156.595,5.859,-81.543,-15.137,22.461,-68.848
1738235156.599,16.602,-75.684,-18.066,-0.977,-287.109
1738235156.603,16.602,-41.016,-24.902,6.836,-274.414
1738235156.607,32.715,-49.805,-25.391,2.441,-0.488
1738235156.611,37.109,-69.824,-32.227,-1.465,457.031
1738235156.614,-6.348,-59.570,-35.645,-28.809,259.277
1738235156.618,-26.855,-58.594,-33.691,-41.016,-324.219
1738235156.622,-11.719,-48.828,-33.691,-18.066,-252.441
1738235156.626,12.695,-37.598,-32.715,-20.996,68.848
1738235156.630,25.879,-34.180,-35.645,-38.086,181.152
1738235156.632,7.812,-42.480,-41.016,-39.062,-12.207
1738235156.636,3.906,-65.430,-37.598,-40.527,-186.035
1738235156.640,7.324,-51.270,-31.738,-23.926,227.051
1738235156.644,4.395,-9.766,-36.133,-23.926,130.859
1738235156.648,12.207,-12.207,-45.898,-42.480,-168.457
1738235156.652,13.184,-45.410,-53.223,-41.992,148.926
1738235156.656,8.301,-63.477,-48.340,-52.734,254.883
1738235156.659,0.000,-31.250,-41.504,-52.734,-155.762
1738235156.663,-29.785,-19.531,-33.203,-32.227,-231.934
1738235156.667,-39.062,-36.621,-29.297,-24.414,53.711
1738235156.671,-18.066,-34.668,-36.133,-32.715,91.309
1738235156.675,-6.836,-44.434,-35.156,-51.270,-227.051
1738235156.680,-41.504,-43.945,-29.785,-41.992,-261.230
1738235156.684,-69.336,-39.062,-24.414,-14.648,12.207
1738235156.688,-60.059,-31.738,-17.090,-8.789,14.160
1738235156.692,-45.898,-36.621,-21.484,-34.180,-119.141
1738235156.696,-34.668,-70.312,-24.414,-74.219,-140.625
1738235156.700,-37.109,-82.520,-20.996,-63.965,176.270
1738235156.704,-39.062,-40.039,-24.414,-25.391,243.164
1738235156.707,-35.156,-24.414,-19.531,-23.926,-46.387
1738235156.711,-29.297,-58.105,-29.297,-36.621,-36.621
1738235156.715,-18.066,-83.496,-43.945,-72.754,214.844
1738235156.719,-20.996,-43.945,-29.785,-83.008,-17.578
1738235156.723,-42.480,-17.578,-15.625,-54.688,-52.246
1738235156.737,-42.969,-33.691,-10.254,-30.762,57.617
1738235156.741,-27.344,-42.480,-9.277,-49.805,64.941
1738235156.745,0.488,-62.500,-19.531,-86.914,-151.367
1738235156.749,2.441,-65.430,-21.484,-70.312,-242.188
1738235156.753,-27.344,-53.711,-13.184,-26.855,-25.879
1738235156.757,-11.230,-66.406,-9.277,-5.859,615.723
1738235156.761,-19.531,-48.828,-6.836,-13.184,539.551
1738235156.764,-52.246,-52.734,2.441,-12.207,-122.559
1738235156.768,-54.688,-86.914,-8.789,-11.719,-169.922
1738235156.772,-48.828,-63.965,-23.438,-1.465,-134.277
1738235156.776,-31.738,-35.156,-15.137,13.184,-148.926
1738235156.780,-14.160,-51.758,-11.719,-7.324,-102.051
1738235156.781,-27.344,-87.402,-20.020,-31.738,66.406
1738235156.785,-22.461,-62.012,-16.602,-6.836,-17.090
1738235156.789,-8.789,-19.531,-15.137,-3.906,-175.781
1738235156.793,-16.602,-17.090,-20.996,-12.695,-40.527
1738235156.797,-17.090,-17.090,-19.531,-21.973,90.820
1738235156.801,-5.859,-33.691,-19.043,-32.227,92.285
1738235156.805,-3.906,-33.203,-22.949,-26.367,-11.719
1738235156.808,-12.695,-1.465,-25.391,-10.254,57.129
1738235156.812,6.348,-0.488,-30.762,-42.969,483.887
1738235156.816,2.930,18.555,-37.598,-63.965,489.746
1738235156.820,-11.230,15.625,-43.457,-41.504,-58.105
1738235156.824,-6.836,-8.301,-44.434,-27.832,-64.453
1738235156.827,-18.066,22.461,-35.156,-18.555,161.133
1738235156.831,-15.137,45.410,-30.762,-24.414,-85.449
1738235156.835,11.230,36.133,-42.480,3.906,-189.453
1738235156.839,39.062,16.602,-48.340,39.062,-77.637
1738235156.843,28.809,-1.465,-33.691,24.414,-108.887
1738235156.847,-8.789,0.000,-22.949,32.715,-21.484
1738235156.851,-33.203,14.160,-22.949,35.156,-6.836
1738235156.854,-27.344,-1.953,-20.996,-11.719,43.945
1738235156.858,-19.531,-27.344,-17.090,-26.367,524.902
1738235156.862,-29.785,-10.742,-18.555,-64.453,93.750
1738235156.866,-34.180,2.441,-15.137,-67.871,-351.562
1738235156.870,-30.762,1.953,-12.207,-9.277,-64.453
1738235156.871,-40.039,0.977,-10.254,-5.859,-34.668
1738235156.875,-41.016,-4.883,-12.695,-12.207,-208.984
1738235156.879,-33.203,-23.438,-21.973,-11.719,-228.027
1738235156.883,-45.410,-20.508,-22.461,0.000,-84.961
1738235156.887,-47.852,-6.348,-19.043,19.043,-78.613
1738235156.891,-41.992,-10.254,-16.602,30.762,20.508
1738235156.895,-41.016,-18.066,-16.602,36.621,81.055
1738235156.898,-31.738,-43.945,-17.090,37.598,312.012
1738235156.902,-37.598,-14.648,-19.043,-12.207,170.898
1738235156.906,-47.852,10.254,-22.949,-37.598,-273.438
1738235156.910,-42.480,-15.137,-20.996,6.836,-123.047
1738235156.914,-20.996,-21.973,-20.508,6.836,150.391
1738235156.932,-16.113,-19.531,-14.160,-17.090,15.625
1738235156.936,-28.809,-17.090,-7.812,1.953,-243.652
1738235156.940,-30.762,-27.344,-10.254,40.039,-131.348
1738235156.944,-20.996,-36.621,-10.254,36.133,286.133
1738235156.948,-25.879,-30.762,-8.789,13.184,39.062
1738235156.952,-21.973,-53.711,-14.160,-1.953,-147.949
1738235156.956,-13.184,-68.848,-11.719,-12.695,164.062
1738235156.959,-15.137,-55.664,-1.465,-9.277,377.930
1738235156.963,-27.344,-24.414,5.859,-6.836,-19.531
1738235156.967,-20.508,-36.133,5.859,-3.906,-258.789
1738235156.971,-9.766,-66.895,5.371,-0.488,-129.395
1738235156.975,-35.645,-62.012,3.418,-8.301,-130.859
1738235156.976,-42.480,-38.574,-5.859,-3.418,-253.906
1738235156.980,-28.320,-33.691,-10.254,2.930,-144.043
1738235156.984,-30.273,-38.086,-5.859,14.648,95.215
1738235156.988,-38.574,-26.855,-6.348,-10.742,6.348
1738235156.992,-34.180,-19.531,-9.277,-29.297,-128.418
1738235156.996,-36.621,-10.254,-5.859,-14.648,75.195
1738235157.000,-40.527,-9.277,-3.418,-27.344,333.496
1738235157.003,-33.203,-6.348,-1.953,-47.852,13.184
1738235157.007,-25.879,-16.602,-2.930,-36.133,-110.840
1738235157.011,-38.574,-38.574,-3.906,-27.344,-26.855
1738235157.015,-61.035,-53.223,0.488,-34.180,349.609
1738235157.019,-62.500,-30.762,-2.930,-45.410,653.809
1738235157.005,-48.340,-1.953,-7.812,-45.898,30.762
1738235157.009,-34.668,-27.832,-10.254,-41.016,-178.223
1738235157.013,-57.617,-48.828,-11.230,-37.598,-2.441
1738235157.017,-58.594,-41.504,-12.207,-34.668,-169.922
1738235157.021,-33.691,-31.738,-8.789,-47.852,-226.074
1738235157.025,-38.086,-34.668,-5.859,-55.176,-8.301
1738235157.029,-40.039,-42.480,-7.324,-50.293,210.938
1738235157.032,-40.527,-44.922,-6.836,-36.621,65.430
1738235157.036,-54.199,-32.227,-4.883,-22.949,-186.523
1738235157.040,-46.387,-28.320,-3.906,-29.297,-100.098
1738235157.044,-31.250,-29.297,-7.324,-62.012,344.727
1738235157.048,-37.109,-10.254,-6.836,-62.012,-12.695
1738235157.066,-43.457,-23.926,-7.812,-24.414,-198.242
1738235157.070,-24.902,-27.832,-6.348,-9.766,29.297
1738235157.074,-20.996,-5.859,-3.418,-4.883,-134.277
1738235157.078,-20.020,-2.441,-9.766,-29.297,-319.336
1738235157.082,-10.742,-18.066,-9.766,-60.059,-227.539
1738235157.086,-34.668,-52.246,-5.859,-64.453,157.227
1738235157.090,-36.621,-53.711,-7.812,-63.965,196.777
1738235157.093,-25.391,-31.738,-13.184,-67.871,-111.816
1738235157.097,-35.156,-36.133,-11.719,-63.965,-205.566
1738235157.101,-36.621,-58.594,-10.254,-50.293,206.055
1738235157.105,-47.363,-53.711,-10.254,-41.016,324.219
1738235157.109,-40.527,-45.410,-8.301,-35.156,41.016
1738235157.111,-20.020,-41.016,-6.348,-36.621,-73.242
1738235157.115,-22.461,-40.527,-10.742,-40.039,58.594
1738235157.119,-33.203,-30.762,-11.719,-38.574,-168.945
1738235157.123,-35.156,-47.852,-7.812,-25.391,-248.047
1738235157.127,-33.203,-61.035,-8.789,-24.414,-19.531
1738235157.131,-30.762,-45.410,-8.301,-36.621,22.949
1738235157.135,-23.438,-33.691,-7.812,-44.434,1.953
1738235157.138,-17.578,-33.203,-12.695,-49.805,-270.996
1738235157.142,-30.273,-67.383,-16.113,-45.898,-59.082
1738235157.146,-51.758,-82.520,-20.508,-52.734,685.547
1738235157.150,-52.734,-35.645,-22.461,-66.406,178.223
1738235157.154,-56.641,-33.691,-22.949,-65.918,-358.887
1738235157.156,-54.199,-51.270,-24.902,-57.617,-168.457
1738235157.160,-53.711,-55.664,-28.809,-43.457,-166.016
1738235157.164,-65.430,-62.500,-25.879,-52.246,-84.473
1738235157.168,-58.105,-53.223,-19.531,-70.801,-105.957
1738235157.172,-51.758,-51.270,-21.973,-68.848,-124.512
1738235157.176,-41.016,-51.270,-25.879,-57.617,-26.855
1738235157.180,-30.762,-47.852,-24.902,-52.246,-20.996
1738235157.183,-37.598,-62.500,-28.320,-68.848,145.508
1738235157.187,-37.598,-60.547,-31.738,-82.520,394.043
1738235157.191,-32.227,-26.367,-31.250,-80.566,55.176
1738235157.195,-43.457,-25.391,-30.273,-69.824,-308.105
1738235157.199,-61.035,-54.688,-30.273,-56.152,-73.242
1738235157.201,-71.777,-79.590,-33.691,-41.504,603.516
1738235157.205,-74.219,-49.805,-34.668,-46.875,442.383
1738235157.209,-50.781,-35.156,-26.367,-61.523,-202.148
1738235157.213,-30.273,-45.410,-22.461,-66.895,-267.578
1738235157.261,-77.637,-31.250,-8.301,-89.844,19.043
1738235157.265,-82.031,-22.949,-11.230,-88.867,-283.691
1738235157.269,-112.793,-55.664,-0.488,-94.727,-244.141
1738235157.273,-126.465,-81.543,-3.418,-82.520,125.000
1738235157.277,-135.742,-71.289,-8.301,-101.074,163.086
1738235157.281,-129.883,-53.711,-5.371,-133.301,-99.609
1738235157.285,-99.121,-63.965,-6.348,-118.652,-165.039
1738235157.288,-91.309,-80.078,-9.277,-105.469,178.711
1738235157.292,-113.770,-71.289,-6.348,-81.055,243.164
1738235157.296,-111.328,-63.965,-7.812,-58.594,-53.223
1738235157.300,-88.867,-67.871,-12.695,-70.312,-159.180
1738235157.304,-71.777,-72.266,-17.090,-82.031,-35.156
1738235157.291,-56.641,-65.430,-17.578,-70.312,-160.645
1738235157.295,-53.223,-75.684,-15.625,-67.383,-281.250
1738235157.299,-59.570,-93.750,-13.672,-68.359,-0.977
1738235157.303,-74.707,-75.684,-10.254,-74.707,163.086
1738235157.307,-67.871,-57.129,-16.113,-76.172,-29.785
1738235157.311,-47.852,-67.383,-13.184,-62.012,-146.973
1738235157.315,-52.246,-86.914,-6.348,-45.410,90.820
1738235157.318,-62.988,-81.543,-7.324,-34.180,355.957
1738235157.322,-48.340,-60.059,-2.930,-43.457,-35.156
1738235157.326,-40.039,-57.617,-10.742,-46.875,-422.852
1738235157.330,-51.758,-73.242,-16.602,-39.062,-162.598
1738235157.334,-43.457,-84.961,-16.113,-28.809,383.789
1738235157.336,-41.504,-73.730,-19.043,-22.949,128.418
1738235157.340,-29.297,-61.035,-16.113,-37.109,-208.984
1738235157.344,-18.555,-56.641,-20.508,-48.828,-168.945
1738235157.348,-34.668,-51.270,-20.508,-48.340,-219.727
1738235157.352,-29.297,-56.152,-14.648,-39.551,-247.559
1738235157.356,-39.062,-75.684,-16.113,-38.574,125.977
1738235157.360,-43.457,-71.289,-13.672,-45.410,471.680
1738235157.363,-22.461,-44.922,-12.695,-32.715,200.195
1738235157.367,-15.137,-41.504,-22.461,-25.879,-272.949
1738235157.371,-23.438,-71.289,-24.414,-24.414,-290.039
1738235157.375,-49.805,-89.355,-15.137,-0.977,96.191
1738235157.379,-54.688,-69.824,-15.137,-11.230,128.418
1738235157.381,-30.762,-54.199,-16.602,-54.688,-208.984
1738235157.385,-8.789,-60.547,-12.695,-51.758,-311.035
1738235157.389,-25.879,-85.449,-11.719,-18.066,235.840
1738235157.393,-42.480,-70.801,-10.254,-10.742,333.496
1738235157.397,-39.551,-52.246,-8.301,-26.855,-97.656
1738235157.401,-35.645,-65.430,-12.207,-53.223,-63.477
1738235157.405,-25.391,-64.453,-19.043,-55.176,46.875
1738235157.408,-23.438,-55.176,-19.531,-47.852,-196.777
1738235157.412,-36.621,-71.777,-21.973,-30.273,-142.090
1738235157.416,-52.246,-77.637,-22.461,-32.715,225.098
1738235157.420,-38.574,-53.711,-21.973,-43.945,50.781
1738235157.424,-30.762,-46.875,-22.461,-28.809,-323.730
1738235157.441,-44.434,-59.570,-25.391,-40.039,-381.836
1738235157.445,-44.434,-82.520,-31.250,-37.109,79.102
1738235157.449,-31.738,-67.871,-28.320,-58.105,308.105
1738235157.453,-23.926,-42.969,-24.902,-94.727,-240.234
1738235157.457,-21.484,-44.434,-24.902,-74.707,-360.352
1738235157.461,-29.297,-56.641,-22.949,-57.617,-7.812
1738235157.465,-38.574,-63.965,-21.973,-35.156,106.934
1738235157.468,-45.410,-49.805,-21.973,-12.695,-7.324
1738235157.472,-35.156,-37.598,-18.555,-46.387,-185.547
1738235157.476,-34.180,-47.852,-21.484,-59.082,-149.414
1738235157.480,-32.715,-52.734,-22.461,-43.457,-207.520
1738235157.484,-26.855,-62.012,-23.438,-27.832,-84.473
1738235157.487,-34.668,-66.406,-23.926,-28.809,130.371
1738235157.491,-29.785,-60.547,-24.902,-42.969,458.008
1738235157.495,-40.527,-41.504,-25.391,-44.434,440.918
1738235157.499,-70.801,-31.250,-20.508,-33.203,-201.660
1738235157.503,-64.941,-56.152,-24.414,-20.020,-211.914
1738235157.507,-67.871,-67.871,-25.879,-23.926,216.309
1738235157.511,-75.195,-51.758,-16.602,-29.785,132.812
1738235157.514,-52.246,-37.109,-19.043,-16.113,-325.195
1738235157.518,-40.039,-55.176,-20.996,-16.602,-243.164
1738235157.522,-41.992,-65.430,-18.066,-36.133,252.441
1738235157.526,-60.059,-47.852,-21.973,-40.527,106.934
1738235157.530,-57.129,-42.480,-22.949,-62.988,-165.039
1738235157.533,-34.668,-46.875,-20.020,-91.309,-237.793
1738235157.537,-32.715,-43.945,-21.484,-79.590,-357.422
1738235157.541,-42.480,-47.363,-21.973,-56.152,-295.410
1738235157.545,-54.688,-53.711,-24.902,-43.457,-21.973
1738235157.549,-56.152,-57.617,-30.762,-51.758,107.910
1738235157.553,-43.945,-48.340,-23.438,-60.547,38.086
1738235157.557,-34.180,-40.039,-16.113,-46.875,-122.070
1738235157.560,-31.250,-48.340,-20.020,-40.527,-275.879
1738235157.564,-34.668,-76.660,-18.066,-28.809,374.023
1738235157.568,-33.691,-54.199,-14.160,-29.297,560.547
1738235157.572,-35.156,-32.715,-23.438,-46.387,-229.492
1738235157.576,-33.203,-52.246,-24.414,-49.805,-209.961
1738235157.591,-47.852,-57.617,-17.578,-18.066,171.875
1738235157.595,-75.684,-55.664,-11.230,-1.465,46.387
1738235157.599,-65.430,-55.176,-7.324,-30.762,-104.004
1738235157.603,-41.504,-48.828,-11.230,-52.734,-218.750
1738235157.607,-40.527,-52.734,-17.090,-53.711,-113.770
1738235157.611,-32.227,-55.176,-25.391,-33.203,-124.512
1738235157.615,-36.621,-52.734,-19.043,-13.184,-80.566
1738235157.618,-51.270,-59.570,-23.438,-38.086,206.055
1738235157.622,-22.461,-60.059,-29.297,-57.129,436.523
1738235157.626,-16.602,-26.855,-13.184,-51.758,1.465
1738235157.630,-27.344,-41.016,-9.766,-32.715,-426.758
1738235157.634,-8.789,-82.031,-12.695,21.973,-48.340
1738235157.636,-0.977,-51.758,-24.902,2.930,107.422
1738235157.640,-11.230,-19.531,-25.879,-61.523,-306.152
1738235157.644,0.000,-24.902,-17.090,-46.875,-329.590
1738235157.648,9.277,-32.715,-34.668,-32.715,-145.996
1738235157.652,-17.578,-41.992,-43.457,-24.414,-120.605
1738235157.656,-54.688,-43.457,-41.016,-27.344,29.785
1738235157.660,-42.969,-28.320,-45.898,-43.945,-26.367
1738235157.663,-23.926,-18.066,-52.246,-45.410,6.836
1738235157.667,-5.371,2.441,-57.129,-34.668,-169.922
1738235157.671,-1.465,-5.859,-56.152,-16.602,-244.629
1738235157.675,-23.926,-25.391,-61.523,-27.832,-20.020
1738235157.679,-23.926,-20.508,-66.895,-60.547,374.512
1738235157.666,-14.648,-2.930,-63.477,-60.547,521.973
1738235157.670,-23.438,20.020,-65.918,-59.570,-19.531
1738235157.674,-16.113,0.000,-73.242,-50.293,-262.695
1738235157.678,-1.465,-9.766,-70.801,-18.066,-34.180
1738235157.682,-17.578,12.207,-72.266,-41.504,-167.969
1738235157.686,-0.977,16.113,-82.520,-58.105,-225.098
1738235157.690,20.996,10.254,-85.449,-35.645,-81.543
1738235157.693,19.531,6.348,-86.426,-32.227,-142.578
1738235157.697,3.906,-2.441,-89.355,-50.293,-114.746
1738235157.701,-2.930,5.859,-86.426,-67.383,-159.668
1738235157.705,6.348,1.953,-89.355,-57.617,-90.820
1738235157.709,4.883,-14.160,-86.914,-37.109,369.141
1738235157.711,0.000,0.977,-80.078,-43.457,22.949
1738235157.715,-0.488,-17.578,-82.031,-42.969,-183.594
1738235157.719,-0.488,-30.273,-77.637,-43.945,85.449
1738235157.723,-5.859,-4.395,-73.242,-46.875,-146.484
1738235157.727,-0.977,-3.906,-66.895,-24.902,-349.121
1738235157.731,18.066,-26.367,-58.594,-27.344,-204.590
1738235157.735,13.672,-55.176,-61.035,-25.391,419.434
1738235157.738,-3.418,-25.879,-56.641,-17.578,386.230
1738235157.742,-1.953,-4.395,-50.781,-25.391,-262.695
1738235157.746,-8.301,-29.785,-48.828,-20.508,-321.777
1738235157.750,-15.137,-42.969,-48.340,-8.789,-155.273
1738235157.754,-18.066,-40.039,-53.711,-12.695,106.934
1738235157.772,-22.949,-28.809,-53.223,-34.180,106.445
1738235157.776,-11.719,-26.367,-49.316,-47.363,-160.156
1738235157.780,3.906,-36.621,-44.922,-37.598,159.180
1738235157.784,-9.766,-18.555,-41.504,-21.973,-3.418
1738235157.788,-15.137,-34.180,-39.551,-17.090,-264.648
1738235157.792,2.441,-52.246,-37.109,-27.344,48.828
1738235157.796,2.441,-27.832,-33.203,-38.086,155.273
1738235157.799,-2.441,-18.066,-30.762,-36.621,-186.035
1738235157.803,-8.301,-29.297,-32.227,-23.926,-375.000
1738235157.807,-13.672,-50.293,-30.762,-14.648,-93.262
1738235157.811,-24.902,-47.363,-28.320,-16.113,-5.859
1738235157.815,-24.902,-33.691,-26.367,-22.461,-267.578
1738235157.816,-25.391,-30.273,-26.855,-31.250,-331.055
1738235157.820,-25.391,-44.922,-28.809,-25.879,-24.414
1738235157.824,-10.254,-51.758,-29.297,-8.789,290.039
1738235157.828,-26.367,-41.992,-32.227,-17.090,-13.672
1738235157.832,-36.133,-40.039,-24.902,-32.715,-202.637
1738235157.836,-15.625,-49.316,-16.113,-28.320,71.777
1738235157.840,0.000,-38.574,-27.344,-27.344,67.383
1738235157.843,-0.488,-35.156,-30.762,-34.180,-165.039
1738235157.847,-20.020,-62.012,-25.391,-40.527,-61.035
1738235157.851,-19.531,-66.406,-20.508,-38.574,312.012
1738235157.855,-25.391,-34.668,-17.578,-27.832,343.262
1738235157.859,-38.086,-21.973,-18.066,-19.531,-122.559
1738235157.861,-25.391,-42.969,-27.344,-20.508,-188.477
1738235157.865,-24.414,-56.641,-35.156,-18.066,218.750
1738235157.869,-43.945,-31.738,-35.156,-20.996,-81.055
1738235157.873,-41.504,-23.438,-36.133,-19.531,-395.996
1738235157.877,-30.762,-40.039,-39.551,-28.809,-205.566
1738235157.881,-13.184,-51.270,-38.574,-12.695,-26.367
1738235157.885,21.973,-63.477,-40.039,20.020,69.824
1738235157.888,4.883,-37.598,-47.363,-1.465,-40.039
1738235157.892,-47.852,-16.113,-48.828,-50.781,-129.883
1738235157.896,-40.039,-22.461,-53.223,-52.246,63.965
1738235157.900,-14.160,-26.855,-53.711,-28.320,-167.969
1738235157.904,-31.250,-49.316,-53.711,-41.992,-280.762
1738235157.906,-39.062,-52.246,-60.547,-43.457,-7.324
1738235157.910,-46.387,-21.973,-55.664,-44.922,33.203
1738235157.914,-50.781,-12.207,-48.340,-49.805,-238.770
1738235157.918,-37.598,-27.832,-47.852,-36.621,-217.773
1738235157.922,-26.367,-49.805,-48.340,-35.645,-33.203
1738235157.926,-25.391,-45.410,-44.922,-34.180,-36.621
1738235157.930,-31.250,-21.973,-40.039,-33.691,-56.641
1738235157.933,-24.414,-25.879,-33.203,-26.855,-35.156
1738235157.937,-14.648,-53.223,-21.973,-17.578,264.648
1738235157.941,-16.113,-48.828,-20.020,-18.066,363.281
1738235157.945,-20.020,-33.691,-24.902,-28.809,-180.664
1738235157.949,-26.855,-38.086,-23.926,-29.297,-159.180
1738235157.951,-24.414,-41.992,-21.484,-31.738,177.246
1738235157.955,-21.973,-32.715,-16.113,-46.387,-78.125
1738235157.959,-1.465,-53.223,-18.066,-41.992,-218.262
1738235157.963,-2.930,-61.035,-18.066,-35.156,-121.582
1738235157.967,-33.203,-34.668,-12.695,-36.621,-184.082
1738235157.971,-28.809,-35.645,-11.719,-23.438,-69.336
1738235157.975,-22.461,-41.016,-11.230,-22.461,-67.871
1738235157.978,-15.625,-59.570,-8.789,-35.645,-14.648
1738235157.982,-25.391,-67.871,-11.719,-41.992,367.188
1738235157.986,-37.598,-34.668,-12.695,-39.551,-41.992
1738235157.990,-29.785,-31.738,-8.301,-26.855,-285.645
1738235157.994,-25.879,-44.434,-9.766,-21.973,-65.430
1738235157.997,-16.113,-47.363,-19.531,-27.832,-66.406
1738235158.001,-22.461,-49.316,-21.973,-33.203,-215.820
1738235158.005,-37.598,-42.969,-6.836,-23.926,-253.906
1738235158.009,-44.434,-46.387,-8.301,-19.531,7.324
1738235158.013,-40.039,-41.016,-12.207,-23.438,32.227
1738235158.017,-23.438,-48.828,-11.719,-34.180,-62.500
1738235158.021,-34.668,-62.500,-13.672,-41.992,43.457
1738235158.024,-40.039,-50.293,-10.254,-32.715,260.742
1738235158.028,-40.039,-20.996,-7.812,-21.973,204.102
1738235158.032,-50.293,-22.949,-11.230,-21.973,-167.969
1738235158.036,-38.086,-52.734,-11.719,-25.391,-164.062
1738235158.040,-36.133,-64.453,-10.742,-32.227,7.324
1738235158.042,-41.504,-43.945,-12.207,-33.691,8.789
1738235158.046,-32.715,-28.809,-11.719,-28.320,-202.637
1738235158.050,-31.250,-46.387,-8.789,-27.832,-137.695
1738235158.054,-35.645,-60.547,-10.742,-27.832,113.770
1738235158.058,-38.574,-64.453,-17.090,-38.574,-85.938
1738235158.062,-42.480,-56.152,-12.695,-37.598,-227.051
1738235158.066,-48.340,-53.223,-10.742,-22.461,-18.066
1738235158.069,-43.945,-62.012,-15.137,-14.648,490.234
1738235158.073,-41.504,-34.668,-11.719,-16.602,166.992
1738235158.077,-25.391,-45.898,-11.719,-22.949,-227.539
1738235158.081,-19.531,-57.129,-9.277,-29.785,-133.789
1738235158.085,-22.461,-39.062,-9.277,-30.273,-179.199
1738235158.101,-29.785,-37.598,-13.672,-28.320,-245.605
1738235158.105,-32.715,-49.805,-16.602,-31.250,-186.523
1738235158.109,-31.250,-69.336,-17.090,-39.062,19.043
1738235158.113,-29.785,-50.293,-15.625,-43.457,-63.477
1738235158.117,-28.320,-30.273,-15.625,-43.457,-224.609
1738235158.121,-26.855,-38.086,-14.648,-39.551,-94.727
1738235158.125,-19.531,-60.059,-11.719,-26.855,403.320
1738235158.128,-12.695,-58.105,-13.184,-27.832,525.879
1738235158.132,-26.855,-32.227,-18.066,-41.992,-122.070
1738235158.136,-38.574,-23.438,-19.043,-30.273,-295.410
1738235158.140,-30.762,-32.715,-14.648,-15.137,-74.219
1738235158.144,-28.320,-42.480,-11.230,-31.738,4.395
1738235158.146,-16.602,-49.316,-15.625,-44.922,-147.461
1738235158.150,-24.902,-55.664,-21.484,-41.992,-187.500
1738235158.154,-41.016,-40.527,-22.949,-39.551,61.035
1738235158.158,-33.203,-24.902,-27.344,-33.691,-97.656
1738235158.162,-26.855,-34.180,-22.461,-24.414,-264.160
1738235158.166,-27.344,-58.105,-15.625,-32.715,2.441
1738235158.170,-20.020,-63.477,-18.066,-43.457,249.512
1738235158.173,-30.762,-39.551,-17.578,-40.527,62.012
1738235158.177,-45.410,-28.320,-17.090,-33.691,-183.105
1738235158.181,-35.645,-49.316,-21.484,-29.785,-65.918
1738235158.185,-23.926,-53.711,-21.973,-24.902,127.930
1738235158.189,-27.832,-43.945,-19.043,-41.016,-174.316
1738235158.191,-49.805,-42.480,-15.137,-45.410,-302.734
1738235158.195,-48.828,-53.711,-12.695,-33.203,-83.496
1738235158.199,-41.504,-47.852,-9.277,-32.227,-41.992
1738235158.203,-31.250,-48.828,-11.719,-36.621,-220.215
1738235158.207,-29.297,-64.453,-15.137,-38.574,-185.547
1738235158.211,-35.156,-63.477,-12.207,-32.715,157.227
1738235158.215,-22.949,-39.062,-13.184,-18.066,148.926
1738235158.218,-16.602,-38.086,-16.113,-7.324,-114.746
1738235158.222,5.371,-67.871,-14.160,8.301,-181.152
1738235158.226,3.906,-87.891,-16.602,-2.441,274.902
1738235158.230,-58.594,-56.152,-20.020,-50.781,387.207
1738235158.234,-69.336,-36.133,-20.508,-45.410,-91.309
1738235158.236,-44.922,-56.641,-23.438,-22.949,-106.445
1738235158.240,-17.090,-69.824,-28.320,-13.672,203.125
1738235158.244,-3.906,-68.359,-32.227,-14.648,-21.973
1738235158.248,-19.531,-61.035,-31.250,-22.949,-304.199
1738235158.281,-10.254,-69.336,-28.320,-12.695,-69.824
1738235158.285,-14.648,-57.129,-23.926,-27.344,-30.273
1738235158.289,-16.113,-40.527,-21.484,-28.809,-270.996
1738235158.293,-26.367,-46.387,-23.438,-13.672,-204.590
1738235158.297,-43.945,-55.176,-22.949,-12.207,-70.801
1738235158.301,-27.344,-68.848,-24.902,-25.391,-32.227
1738235158.305,-25.879,-58.105,-23.926,-47.363,-51.270
1738235158.308,-44.434,-41.992,-24.902,-39.551,-167.480
1738235158.312,-30.762,-61.035,-27.344,-29.297,194.824
1738235158.316,-27.344,-46.875,-25.879,-38.086,216.797
1738235158.320,-30.762,-59.082,-25.391,-38.086,-178.711
1738235158.324,-34.668,-79.102,-23.926,-40.527,3.418
1738235158.341,-49.316,-54.688,-25.391,-31.738,364.746
1738235158.345,-48.340,-34.180,-23.438,-21.973,41.504
1738235158.349,-32.227,-42.969,-14.648,-16.602,-270.020
1738235158.353,-18.066,-64.941,-14.648,-9.766,-160.645
1738235158.357,-20.996,-64.453,-24.414,-27.832,-30.762
1738235158.361,-27.832,-44.434,-26.855,-33.203,-40.527
1738235158.365,-31.250,-42.480,-23.926,-24.414,-87.891
1738235158.368,-27.344,-51.270,-25.391,-20.020,38.086
1738235158.372,-18.066,-62.988,-28.320,-27.832,340.820
1738235158.376,-31.738,-57.617,-25.879,-40.039,-83.496
1738235158.380,-51.758,-43.945,-22.949,-27.344,-351.562
1738235158.384,-47.852,-39.551,-24.414,-24.414,-149.414
1738235158.371,-47.852,-45.898,-30.762,-26.367,-132.812
1738235158.375,-34.180,-49.805,-33.203,-23.926,-185.059
1738235158.379,-0.488,-57.129,-28.809,-16.113,-177.734
1738235158.383,-21.973,-57.129,-22.461,-20.020,-18.555
1738235158.387,-53.711,-38.574,-19.531,-35.645,-74.707
1738235158.391,-39.062,-41.504,-22.949,-35.645,-134.277
1738235158.395,-41.992,-61.523,-28.320,-37.109,74.219
1738235158.398,-47.852,-68.848,-27.832,-38.086,147.461
1738235158.402,-50.293,-40.527,-23.926,-43.457,-86.426
1738235158.406,-45.898,-22.949,-28.809,-34.180,-243.164
1738235158.410,-38.574,-34.668,-37.109,-20.508,-168.945
1738235158.414,-29.297,-62.500,-36.621,-19.531,474.121
1738235158.416,-21.973,-58.594,-39.062,-32.715,631.348
1738235158.420,-16.113,-19.531,-32.715,-31.250,-70.312
1738235158.424,-19.531,-14.648,-23.926,-23.926,-236.816
1738235158.428,-40.527,-23.926,-18.555,-21.484,-127.930
1738235158.432,-34.180,-34.668,-20.508,-25.879,-180.176
1738235158.436,-17.578,-53.223,-25.391,-32.715,-187.012
1738235158.440,-30.762,-56.152,-26.367,-25.879,-14.160
1738235158.443,-27.344,-48.340,-27.344,-24.414,571.777
1738235158.447,-18.066,-20.996,-21.484,-23.438,192.871
1738235158.451,-38.574,-27.832,-23.926,-25.391,-313.965
1738235158.455,-37.109,-64.453,-33.691,-37.598,-142.578
1738235158.459,-40.039,-58.594,-29.297,-42.969,-131.348
1738235158.461,-41.992,-31.738,-20.996,-32.227,-256.836
1738235158.465,-32.227,-35.156,-19.043,-21.973,-216.309
1738235158.469,-29.785,-55.664,-24.902,-28.320,3.906
1738235158.473,-20.020,-56.152,-29.297,-45.898,-48.828
1738235158.477,-17.090,-44.434,-26.855,-44.434,-230.469
1738235158.481,-30.273,-31.738,-23.926,-35.156,-169.922
1738235158.485,-31.250,-38.574,-27.344,-30.762,298.828
1738235158.488,-40.039,-33.691,-27.344,-20.996,327.148
1738235158.492,-38.086,-38.574,-28.809,-44.434,-69.824
1738235158.496,-26.367,-51.270,-27.832,-49.805,-136.230
1738235158.500,-37.598,-38.574,-23.926,-22.461,73.730
1738235158.504,-32.227,-22.949,-22.461,-19.531,69.336
1738235158.506,-25.879,-23.438,-27.344,-34.668,-175.781
1738235158.510,-31.738,-52.734,-32.715,-47.852,-137.207
1738235158.514,-30.762,-60.059,-28.809,-48.340,139.160
1738235158.518,-29.297,-23.438,-22.461,-47.852,-108.887
1738235158.522,-28.320,-23.926,-19.531,-41.992,-268.555
1738235158.526,-16.602,-44.434,-20.996,-30.762,-113.770
1738235158.530,-20.508,-53.711,-24.902,-35.645,81.543
1738235158.533,-36.133,-48.828,-23.926,-37.598,-47.852
1738235158.537,-41.992,-33.203,-23.926,-38.086,-296.387
1738235158.541,-49.805,-43.945,-21.973,-38.086,-91.797
1738235158.545,-50.293,-46.387,-19.043,-37.598,238.281
1738235158.549,-39.062,-34.668,-27.344,-46.875,-30.762
1738235158.557,-23.438,-50.293,-26.367,-47.852,-262.695
1738235158.561,-20.996,-48.340,-24.902,-31.738,-56.641
1738235158.565,-32.715,-18.555,-21.973,-14.160,-44.434
1738235158.569,-35.645,-15.137,-17.578,-20.508,-231.934
1738235158.573,-30.762,-37.109,-23.438,-32.715,-208.984
1738235158.577,-30.762,-64.941,-26.855,-41.016,39.062
1738235158.581,-52.246,-49.805,-22.461,-54.199,95.703
1738235158.584,-41.992,-23.926,-22.949,-45.410,-150.391
1738235158.588,-20.020,-33.691,-24.414,-23.926,-153.320
1738235158.592,-19.531,-47.363,-20.996,-11.719,180.664
1738235158.596,-27.832,-46.875,-23.926,-41.992,17.090
1738235158.600,-40.039,-38.086,-20.996,-49.805,-197.754
1738235158.611,-29.297,-22.949,-17.578,-37.109,-28.320
1738235158.615,-20.508,-20.996,-20.020,-60.547,155.762
1738235158.619,-31.250,-30.762,-21.973,-62.012,-8.301
1738235158.623,-37.109,-52.246,-28.809,-50.781,-173.828
1738235158.627,-38.574,-53.711,-29.785,-54.688,-160.156
1738235158.631,-38.574,-49.805,-28.320,-41.992,462.891
1738235158.635,-36.133,-45.410,-29.297,-27.832,845.703
1738235158.638,-53.711,-33.203,-25.879,-33.203,210.449
1738235158.642,-52.246,-52.734,-24.414,-53.711,-167.969
1738235158.646,-46.875,-52.246,-22.949,-49.805,-151.855
1738235158.650,-46.387,-25.879,-21.484,-29.785,-290.527
1738235158.654,-42.480,-24.414,-26.367,-30.762,-275.879
1738235158.657,-41.504,-41.016,-26.855,-42.480,-94.727
1738235158.661,-36.621,-55.176,-27.832,-50.781,-125.977
1738235158.665,-45.410,-51.758,-27.832,-47.852,-261.230
1738235158.669,-46.875,-38.574,-22.949,-33.691,-114.258
1738235158.673,-43.945,-36.621,-25.879,-22.949,144.043
1738235158.677,-37.109,-36.621,-27.832,-18.555,145.996
1738235158.681,-27.344,-46.387,-30.762,-31.738,4.883
1738235158.684,-35.156,-57.617,-34.180,-49.316,-54.199
1738235158.688,-46.387,-59.570,-33.691,-38.574,288.574
1738235158.692,-41.016,-31.250,-31.250,-30.273,219.238
1738235158.696,-36.133,-26.367,-26.855,-24.902,-162.109
1738235158.700,-26.855,-54.688,-27.832,-22.949,87.402
1738235158.702,-17.578,-58.105,-27.832,-32.715,88.867
1738235158.706,-36.621,-38.086,-28.320,-32.715,-234.863
1738235158.710,-47.852,-35.645,-34.668,-27.344,-295.898
1738235158.714,-35.156,-41.992,-35.156,-23.926,-144.531
1738235158.718,-37.598,-47.363,-32.715,-26.367,28.809
1738235158.722,-37.598,-51.758,-34.668,-36.621,32.715
1738235158.726,-33.203,-45.898,-31.738,-33.203,-70.312
1738235158.729,-23.926,-41.016,-31.738,-18.066,0.488
1738235158.733,-30.762,-35.645,-30.762,-12.207,90.332
1738235158.737,-34.180,-47.852,-27.832,-20.508,-117.188
1738235158.741,-26.367,-64.941,-28.320,-41.016,-292.969
1738235158.745,-15.137,-61.523,-24.902,-44.434,-32.715
1738235158.747,-22.461,-43.457,-29.297,-32.715,441.895
1738235158.751,-40.527,-17.578,-31.738,-35.156,12.695
1738235158.755,-30.273,-37.109,-34.668,-37.598,-252.441
1738235158.759,-20.020,-52.246,-32.227,-31.250,-107.910
1738235158.763,-23.438,-35.156,-25.879,-31.250,-175.781
1738235158.767,-13.672,-25.879,-31.738,-17.578,-48.828
1738235158.771,-12.207,-28.320,-31.738,-7.324,37.598
1738235158.774,-13.672,-49.805,-27.344,-16.602,288.574
1738235158.778,-10.254,-52.246,-30.762,-37.109,267.578
1738235158.782,-25.391,-32.715,-27.832,-46.387,-225.098
1738235158.786,-29.297,-29.297,-21.973,-26.855,-247.070
1738235158.790,-15.625,-47.852,-26.367,-3.418,261.230
1738235158.791,-14.648,-33.691,-29.785,-9.766,88.867
1738235158.795,-16.113,-34.668,-26.367,-30.273,-297.363
1738235158.799,-20.508,-50.781,-22.949,-35.156,-200.195
1738235158.803,-27.832,-32.715,-19.043,-20.020,-157.227
1738235158.807,-23.438,-26.855,-23.438,-19.531,-136.719
1738235158.811,-12.207,-43.457,-27.832,-22.949,-102.051
1738235158.815,-12.695,-60.547,-28.809,-22.949,26.855
1738235158.818,-28.320,-59.570,-26.855,-38.086,380.859
1738235158.822,-41.504,-24.902,-21.484,-38.086,-5.371
1738235158.826,-35.645,-26.855,-22.949,-22.461,-276.855
1738235158.830,-8.789,-46.387,-23.438,-15.137,10.254
1738235158.834,-10.254,-53.711,-19.043,-21.484,18.066
1738235158.836,-31.738,-55.664,-21.484,-30.273,-234.863
1738235158.840,-31.738,-43.945,-28.320,-25.879,-262.695
1738235158.844,-32.715,-42.480,-31.250,-10.742,-31.738
1738235158.848,-35.645,-37.598,-28.320,-8.301,-49.805
1738235158.852,-29.297,-47.363,-27.832,-24.902,-246.094
1738235158.856,-28.320,-64.941,-28.320,-36.133,-84.473
1738235158.860,-38.086,-54.688,-22.949,-15.137,385.742
1738235158.863,-42.480,-25.879,-26.367,-7.812,335.449
1738235158.867,-33.691,-24.414,-28.809,-12.695,-128.418
1738235158.871,-5.859,-44.922,-26.367,-12.207,-200.195
1738235158.875,-4.395,-49.805,-29.785,-28.320,-85.449
1738235158.879,-33.691,-34.180,-20.020,-16.602,-78.125
1738235158.882,-49.805,-18.066,-14.648,-11.719,-195.801
1738235158.886,-54.688,-33.691,-22.949,-4.395,67.383
1738235158.890,-45.410,-58.594,-24.902,-3.906,563.965
1738235158.894,-41.504,-48.340,-22.949,-25.879,154.785
1738235158.898,-46.387,-34.180,-24.414,-29.785,-383.789
1738235158.902,-40.039,-39.062,-18.555,-20.508,-28.809
1738235158.906,-27.344,-34.668,-16.602,-22.949,299.316
1738235158.909,-24.414,-37.109,-21.973,-25.391,-45.410
1738235158.913,-30.273,-62.500,-22.949,-25.391,-301.270
1738235158.917,-53.711,-62.500,-25.879,-28.809,-164.551
1738235158.921,-65.918,-36.621,-26.855,-16.113,42.480
1738235158.925,-40.527,-30.762,-20.020,0.000,-167.480
1738235158.957,-31.738,-41.504,-23.926,-8.301,-224.121
1738235158.961,-21.973,-59.082,-29.785,-37.109,-113.770
1738235158.965,-24.414,-51.758,-25.879,-47.363,-168.945
1738235158.969,-48.340,-36.621,-23.438,-28.809,-169.434
1738235158.973,-38.574,-32.715,-24.902,-10.254,-136.719
1738235158.977,-19.043,-58.594,-30.762,-0.977,366.699
1738235158.981,-26.367,-55.176,-31.738,-18.066,537.598
1738235158.984,-54.688,-18.555,-23.926,-39.551,-126.465
1738235158.988,-41.504,-28.320,-20.996,-20.508,-193.359
1738235158.992,-41.992,-38.086,-27.344,-10.742,108.887
1738235158.996,-43.457,-23.926,-24.902,-16.602,22.461
1738235159.000,-32.227,-47.852,-22.461,-25.391,-93.750
1738235158.986,-37.109,-49.316,-19.531,-28.809,-107.910
1738235158.990,-39.551,-31.738,-17.090,-8.301,164.551
1738235158.994,-16.602,-15.625,-20.020,-14.160,44.922
1738235158.998,-30.762,-23.438,-23.438,-33.203,-189.941
1738235159.002,-30.273,-60.059,-22.949,-38.086,-138.672
1738235159.006,-15.137,-56.641,-22.949,-24.902,-83.008
1738235159.010,-44.922,-26.367,-23.438,-23.926,-108.887
1738235159.013,-56.152,-39.551,-21.484,-20.508,-70.801
1738235159.017,-38.574,-47.363,-20.508,1.953,-15.137
1738235159.021,-35.156,-48.828,-29.785,-19.043,-42.480
1738235159.025,-47.852,-58.105,-31.738,-41.992,-184.570
1738235159.029,-42.480,-39.551,-18.555,-21.484,-272.461
1738235159.031,-33.203,-45.410,-18.066,-6.348,55.176
1738235159.035,-31.250,-57.129,-25.879,-8.301,559.570
1738235159.039,-40.527,-39.551,-33.203,-33.203,121.582
1738235159.043,-41.016,-44.922,-34.668,-53.223,-221.191
1738235159.047,-27.832,-38.086,-32.227,-30.273,-121.094
1738235159.051,0.977,-24.414,-31.250,11.719,-36.621
1738235159.055,-5.371,-20.020,-28.809,17.578,42.480
1738235159.058,-32.715,-18.066,-37.109,-44.922,-145.508
1738235159.062,-28.809,-45.898,-44.434,-74.707,273.438
1738235159.066,-50.293,-20.996,-36.621,-44.922,431.641
1738235159.070,-58.594,3.418,-34.180,-33.203,-169.922
1738235159.074,-41.504,-17.578,-34.668,-42.480,-130.371
1738235159.076,-27.832,-31.250,-36.621,-53.711,245.117
1738235159.080,-12.207,-21.973,-43.945,-50.293,-63.965
1738235159.084,-34.180,-12.207,-38.086,-42.480,-361.816
1738235159.088,-43.457,-8.789,-34.668,-40.039,-221.680
1738235159.092,-34.668,-12.207,-40.039,-37.598,-119.141
1738235159.096,-46.875,-37.598,-37.598,-51.270,27.832
1738235159.100,-38.086,-42.969,-37.109,-63.477,-84.961
1738235159.103,-35.156,-39.062,-36.621,-39.551,-80.078
1738235159.107,-37.598,-40.039,-39.551,-23.438,409.180
1738235159.111,-17.090,-16.602,-47.363,-29.297,45.898
1738235159.115,-10.742,-31.250,-47.363,-34.668,-263.184
1738235159.119,-0.977,-62.012,-46.387,-42.480,92.773
1738235159.120,0.000,-42.969,-45.410,-40.527,4.883
1738235159.124,-13.672,-22.461,-39.551,-23.926,-279.297
1738235159.128,-7.324,-35.645,-37.598,-18.555,-223.633
1738235159.132,4.395,-53.223,-46.875,-31.250,-113.770
1738235159.136,12.695,-50.781,-46.387,-51.270,-152.344
1738235159.140,0.488,-44.434,-41.504,-49.316,-76.660
1738235159.144,-22.949,-38.574,-41.016,-23.926,25.391
1738235159.147,-13.184,-40.039,-41.992,-4.395,293.945
1738235159.151,-3.418,-22.461,-44.434,4.395,270.996
1738235159.155,0.488,-28.809,-45.410,-25.879,-173.828
1738235159.159,5.371,-52.734,-47.363,-46.387,-156.250
1738235159.163,-2.930,-31.738,-46.387,-27.832,125.000
1738235159.182,-2.930,-20.020,-47.363,-19.531,-8.789
1738235159.186,-20.020,-31.738,-55.664,-19.043,-179.199
1738235159.190,-22.949,-52.246,-55.664,-25.391,-57.129
1738235159.194,-7.812,-62.012,-47.852,-34.180,191.895
1738235159.198,-22.461,-28.809,-41.504,-22.949,-53.711
1738235159.202,-16.602,-29.785,-46.875,-12.695,-82.520
1738235159.206,-12.207,-53.223,-48.340,-13.184,213.379
1738235159.209,-15.137,-67.871,-47.363,-28.809,423.340
1738235159.213,-20.996,-49.805,-48.828,-49.805,-41.992
1738235159.217,-8.789,-36.621,-45.410,-36.621,-340.332
1738235159.221,0.977,-47.852,-41.992,-16.113,-121.582
1738235159.225,-14.648,-48.828,-42.969,-18.555,-125.000
1738235159.211,-21.484,-45.410,-45.410,-18.066,-256.836
1738235159.215,-25.879,-54.688,-48.828,-18.555,-268.066
1738235159.219,-36.621,-52.734,-41.992,-20.508,-84.473
1738235159.223,-39.062,-39.062,-37.598,-24.902,-75.195
1738235159.227,-35.645,-44.434,-41.504,-28.320,-127.441
1738235159.231,-24.902,-62.988,-47.363,-41.992,-29.785
1738235159.235,-8.789,-71.777,-43.457,-46.387,169.434
1738235159.238,-22.461,-38.086,-43.457,-42.969,4.883
1738235159.242,-39.551,-20.020,-48.828,-40.039,-209.473
1738235159.246,-30.273,-31.738,-47.852,-33.203,-180.176
1738235159.250,-5.371,-62.988,-52.246,-36.133,391.602
1738235159.254,13.184,-67.383,-56.152,-41.504,735.840
1738235159.256,-2.930,-26.367,-51.758,-40.527,45.410
1738235159.260,-7.324,-23.438,-42.480,-24.902,-272.949
1738235159.264,-6.836,-33.203,-37.598,-2.930,-124.512
1738235159.268,-5.371,-42.480,-39.551,17.090,-157.715
1738235159.316,-44.434,-29.785,-43.457,-26.855,-244.141
1738235159.320,-26.367,-45.410,-43.945,-23.926,-81.543
1738235159.324,-7.324,-54.688,-52.734,-38.086,-125.000
1738235159.328,-9.766,-50.293,-57.129,-46.875,-264.648
1738235159.332,-19.531,-37.598,-46.875,-32.715,-256.836
1738235159.336,-24.414,-44.434,-38.574,-22.461,105.469
1738235159.340,-38.086,-45.410,-38.086,-22.949,123.535
1738235159.343,-31.250,-44.922,-46.875,-42.480,-206.055
1738235159.347,-32.715,-51.270,-57.129,-62.012,-238.281
1738235159.351,-30.273,-35.645,-58.594,-37.598,81.055
1738235159.355,-29.297,-19.531,-58.105,-8.301,76.660
1738235159.359,-54.199,-31.250,-62.988,-12.695,39.551
1738235159.361,-38.086,-50.781,-73.242,-28.320,-166.992
1738235159.365,-16.602,-66.406,-80.566,-35.156,184.570
1738235159.369,-20.020,-27.344,-76.660,-17.090,460.938
1738235159.373,-34.180,-5.371,-74.219,-9.766,-109.863
1738235159.377,-24.902,-25.879,-76.660,-12.207,-212.402
1738235159.381,-14.648,-38.574,-82.520,-20.996,-7.324
1738235159.385,-21.973,-42.480,-82.520,-43.457,-137.207
1738235159.388,-28.809,-18.066,-83.984,-26.367,-367.188
1738235159.392,-17.578,-17.578,-90.332,2.930,-127.441
1738235159.396,-1.465,-24.902,-85.449,-4.395,360.352
1738235159.400,3.418,-20.996,-84.473,-27.832,-36.621
1738235159.404,6.348,-39.062,-92.773,-39.551,-396.484
1738235159.406,-4.395,-28.809,-93.262,-30.273,-92.285
1738235159.410,-18.066,-7.812,-93.750,-20.020,144.043
1738235159.414,-27.344,-9.277,-91.309,-7.812,-123.047
1738235159.418,-16.113,-26.855,-99.609,-1.465,-233.887
1738235159.422,-7.812,-35.645,-91.309,-15.137,-237.793
1738235159.426,-20.996,-19.043,-80.078,8.301,-174.316
1738235159.430,-27.344,-9.277,-95.215,6.348,-72.754
1738235159.433,-15.625,-14.160,-90.332,-18.066,-105.957
1738235159.437,-12.207,-41.504,-91.797,-17.090,247.070
1738235159.441,-29.785,-37.598,-107.910,-45.410,79.102
1738235159.445,-35.156,-9.766,-93.262,-34.668,-367.188
1738235159.449,-27.832,-9.766,-78.125,4.883,-78.125
1738235159.466,-22.949,-14.648,-92.285,-1.953,307.617
1738235159.470,-27.344,-10.254,-109.863,-21.484,30.273
1738235159.474,-22.461,-22.461,-105.469,-46.387,-358.398
1738235159.478,-7.324,-14.160,-110.840,-42.480,-301.270
1738235159.482,5.859,12.695,-120.117,3.906,-6.836
1738235159.486,-9.766,2.930,-137.207,15.137,122.070
1738235159.490,-9.766,-9.277,-153.320,-4.395,36.621
1738235159.493,-3.906,-32.227,-158.691,-26.367,-118.164
1738235159.497,-16.113,-46.387,-152.344,-7.324,128.418
1738235159.501,-30.762,6.348,-150.391,-1.953,-20.020
1738235159.505,-17.090,12.207,-155.273,-11.230,-122.559
1738235159.509,2.441,-18.555,-147.461,-0.488,24.414
1738235159.496,-0.977,-29.297,-145.508,-34.668,-190.430
1738235159.500,-9.277,-19.043,-148.438,-30.762,-427.734
1738235159.504,-36.621,1.953,-154.785,4.395,-235.352
1738235159.508,-18.555,13.672,-156.250,31.738,101.562
1738235159.512,-8.789,5.371,-147.461,30.273,259.277
1738235159.516,-22.949,-33.203,-142.090,-25.391,67.383
1738235159.520,-15.625,-27.832,-138.184,-38.086,-188.965
1738235159.523,-8.789,3.906,-124.512,20.508,124.023
1738235159.527,-12.695,12.695,-126.953,49.316,273.438
1738235159.531,-10.254,8.789,-141.602,49.316,65.430
1738235159.535,0.977,-20.020,-142.090,6.348,-107.910
1738235159.539,3.418,-32.227,-151.367,-36.133,297.363
1738235159.541,7.324,18.066,-156.250,3.418,603.027
1738235159.545,9.277,43.457,-146.973,12.207,153.320
1738235159.549,11.719,14.648,-149.414,14.648,11.719
1738235159.553,9.766,-7.324,-162.109,5.371,-64.453
1738235159.557,3.906,-14.160,-163.574,-6.348,-429.199
1738235159.561,1.465,10.742,-157.227,27.832,-310.547
1738235159.565,16.602,22.949,-153.320,40.527,254.395
1738235159.568,23.926,8.789,-152.832,47.852,841.309
1738235159.572,39.062,16.602,-150.391,29.297,275.391
1738235159.576,55.664,15.625,-134.766,0.488,-561.035
1738235159.580,38.086,34.668,-123.047,23.926,-352.539
1738235159.584,31.738,58.594,-121.094,67.871,-1.953
1738235159.585,19.531,49.805,-117.188,60.547,48.340
1738235159.589,1.953,19.043,-118.652,19.043,-29.297
1738235159.593,9.766,-4.883,-127.930,0.000,-288.574
1738235159.597,16.602,32.227,-135.742,41.992,-343.750
1738235159.601,14.160,58.105,-122.070,69.336,-65.918
1738235159.605,13.672,37.598,-125.977,66.406,245.117
1738235159.609,17.578,9.766,-143.555,46.387,544.434
1738235159.612,24.414,6.836,-139.160,-18.066,35.156
1738235159.616,27.832,29.785,-117.188,3.418,-526.855
1738235159.620,25.879,31.250,-109.375,52.734,35.645
1738235159.624,24.902,34.180,-112.793,60.059,415.527
1738235159.628,28.809,29.297,-102.539,32.715,167.480
1738235159.630,15.625,-7.812,-104.980,-29.297,-394.043
1738235159.634,-3.906,-13.184,-98.145,-16.113,-491.699
1738235159.638,-1.465,5.371,-96.191,48.828,389.160
1738235159.642,0.488,20.996,-65.430,50.293,469.238
1738235159.646,15.137,7.324,-22.949,39.062,9.277
1738235159.650,13.672,-34.180,-29.785,-12.695,-141.602
1738235159.654,-2.930,-33.203,-47.852,-48.828,-132.812
1738235159.657,2.441,22.949,-42.969,33.203,-66.895
1738235159.661,-8.789,34.180,-39.551,44.434,52.246
1738235159.665,-0.977,10.254,-31.738,12.695,172.363
1738235159.669,20.508,0.000,-25.391,-27.832,-198.730
1738235159.673,20.508,24.414,-31.738,-38.086,-572.266
1738235159.679,-1.953,58.594,-15.625,44.434,-150.391
1738235159.683,-8.301,34.180,6.348,65.918,296.387
1738235159.687,-1.465,0.977,18.066,34.668,342.285
1738235159.691,-3.418,-40.039,31.250,-17.578,-185.059
1738235159.695,-10.254,-74.707,33.691,-45.410,-604.980
1738235159.699,-7.812,-61.035,24.414,21.484,13.672
1738235159.703,0.488,-49.316,29.297,46.875,381.836
1738235159.706,1.953,-57.129,28.809,17.090,193.848
1738235159.710,8.301,-85.938,0.488,-22.461,-97.168
1738235159.714,-4.395,-102.539,-58.105,-42.969,-210.938
1738235159.718,-17.578,-41.504,-81.543,21.973,8.789
1738235159.722,0.000,-23.438,-84.961,48.340,201.172
1738235159.737,2.441,-36.133,-95.703,0.977,255.859
1738235159.741,-1.953,-44.434,-121.582,-47.852,80.566
1738235159.745,10.254,-44.434,-128.418,-74.707,-338.379
1738235159.749,10.742,3.906,-92.773,-22.461,-300.781
1738235159.753,-1.953,6.836,-96.191,35.645,79.102
1738235159.757,-8.789,-25.879,-102.051,27.832,827.637
1738235159.761,-11.719,-20.996,-90.332,-30.273,623.535
1738235159.764,-13.184,-34.668,-92.285,-91.797,-550.781
1738235159.768,-5.371,-16.602,-93.262,-42.480,-517.090
1738235159.772,-40.039,1.465,-109.375,15.625,109.863
1738235159.776,-61.523,-9.277,-110.840,10.254,142.578
1738235159.780,-26.855,-27.832,-110.352,-24.902,-22.949
1738235159.781,-46.875,-60.547,-136.719,-99.609,-430.664
1738235159.785,-59.570,-28.809,-119.629,-71.289,-548.828
1738235159.789,-40.039,-5.859,-99.609,-14.648,-131.836
1738235159.793,-47.363,-32.715,-100.098,-16.113,146.484
1738235159.797,-51.270,-65.430,-92.773,-37.598,221.680
1738235159.801,-47.852,-86.914,-84.961,-76.172,-168.945
1738235159.805,-38.086,-46.875,-68.359,-51.270,-352.539
1738235159.808,-29.785,-0.977,-46.875,-1.953,95.703
1738235159.812,-37.109,-23.438,-57.617,7.812,664.062
1738235159.816,-44.434,-29.297,-81.055,-29.785,745.117
1738235159.820,-42.969,-42.480,-97.656,-96.191,-258.301
1738235159.824,-42.480,-37.598,-102.539,-82.520,-489.746
1738235159.826,-43.457,29.785,-108.398,-21.973,247.070
1738235159.830,-35.645,61.035,-125.000,-2.441,273.926
1738235159.834,-33.691,44.434,-149.414,-14.648,25.391
1738235159.838,-40.039,13.184,-167.969,-81.543,-308.105
1738235159.842,-46.387,45.410,-163.574,-85.938,-559.082
1738235159.846,-54.199,104.980,-157.227,-23.926,-81.543
1738235159.850,-56.641,125.000,-148.438,-15.137,313.477
1738235159.853,-37.598,116.211,-128.418,-17.578,422.363
1738235159.857,-24.902,54.199,-132.324,-77.148,433.105
1738235159.861,-42.480,67.383,-130.371,-121.094,-349.609
1738235159.865,-53.711,121.094,-104.492,-41.504,-422.363
1738235159.869,-41.504,105.469,-81.543,-0.488,118.164
1738235159.870,-23.438,102.051,-79.102,-20.508,189.453
1738235159.874,-38.086,79.590,-94.238,-68.848,-198.730
1738235159.878,-55.664,58.105,-83.496,-95.215,-668.945
1738235159.882,-37.598,100.586,-88.867,-26.367,-291.992
1738235159.886,-23.926,119.141,-113.770,13.184,142.578
1738235159.890,-11.230,104.004,-120.605,5.371,350.586
1738235159.894,-15.625,48.828,-150.879,-43.457,120.605
1738235159.897,-20.020,10.254,-202.637,-79.102,-226.074
1738235159.901,-19.043,80.566,-227.539,-18.555,-80.566
1738235159.905,-30.273,119.141,-222.656,22.461,132.812
1738235159.909,-19.531,85.449,-230.469,5.859,388.184
1738235159.913,-11.719,25.391,-250.000,-37.598,558.594
1738235159.916,-8.301,27.832,-233.887,-95.215,-175.293
1738235159.920,-12.207,72.266,-198.730,-54.199,-536.133
1738235159.924,-21.973,66.895,-175.293,-2.441,-3.906
1738235159.928,-27.344,48.828,-145.996,2.930,241.211
1738235159.932,-29.785,7.812,-137.695,-26.367,39.551
1738235159.936,-32.715,-33.203,-138.672,-83.496,-507.812
1738235159.940,-31.738,8.789,-105.469,-45.410,-374.512
1738235159.943,-45.410,61.523,-73.242,20.020,346.191
1738235159.947,-56.641,53.711,-53.711,16.113,379.883
1738235159.951,-49.805,14.160,-51.270,-25.879,72.754
1738235159.955,-52.246,-36.621,-45.898,-88.867,-408.691
1738235159.959,-58.105,-4.883,-13.184,-60.059,-333.496
1738235159.963,-47.363,29.785,10.254,-0.977,72.754
1738235159.967,-39.551,-0.488,19.043,-18.066,192.871
1738235159.971,-43.457,-32.715,16.113,-47.363,304.199
1738235159.975,-61.035,-49.316,25.879,-102.539,-204.590
1738235159.979,-80.566,-11.230,57.129,-80.566,-596.680
1738235159.983,-60.059,30.273,93.750,-2.441,98.145
1738235159.987,-33.203,28.809,113.281,9.766,800.293
1738235159.990,-34.668,35.645,124.512,-21.484,664.062
1738235159.994,-45.898,-1.465,127.441,-86.426,-262.695
1738235159.998,-62.500,-5.371,131.836,-86.914,-618.164
1738235160.002,-70.312,33.691,132.324,1.953,-7.324
1738235160.006,-70.312,20.996,122.559,17.090,403.320
1738235160.021,-74.707,10.254,120.605,-18.066,267.578
1738235160.025,-60.059,-33.203,98.145,-76.660,-158.203
1738235160.029,-61.523,-44.434,84.961,-80.566,-191.895
1738235160.033,-67.871,4.883,96.680,-18.555,15.137
1738235160.037,-62.988,-4.883,107.910,-12.695,128.418
1738235160.041,-51.270,-40.039,113.281,-31.250,422.363
1738235160.045,-62.988,-104.492,107.910,-73.242,673.340
1738235160.048,-92.285,-89.844,119.629,-111.816,-26.855
1738235160.052,-81.055,-41.016,143.555,-62.988,-340.820
1738235160.056,-63.965,-64.453,144.043,-23.926,86.426
1738235160.060,-52.246,-75.684,147.949,-43.457,218.262
1738235160.064,-48.340,-109.375,147.949,-93.262,-217.285
1738235160.052,-49.805,-126.465,148.926,-116.211,-717.285
1738235160.056,-48.828,-83.496,152.832,-38.574,-327.637
1738235160.060,-36.133,-60.547,148.438,-12.695,126.953
1738235160.064,-38.086,-68.848,151.855,-37.109,116.211
1738235160.068,-32.227,-111.816,138.672,-77.148,-81.055
1738235160.072,-20.020,-142.090,125.977,-118.652,-165.527
1738235160.076,-46.387,-92.773,129.883,-53.711,-42.480
1738235160.079,-78.613,-75.684,130.859,-15.137,165.039
1738235160.083,-81.055,-103.516,125.488,-34.180,259.766
1738235160.087,-42.480,-146.484,109.375,-57.617,376.953
1738235160.091,-35.156,-153.809,93.750,-105.957,-178.711
1738235160.095,-72.754,-103.516,88.867,-62.012,-481.445
1738235160.126,-76.172,-88.867,85.449,-14.648,52.734
1738235160.130,-69.336,-102.539,79.102,-34.180,318.359
1738235160.134,-56.152,-117.676,70.801,-41.504,73.242
1738235160.138,-51.758,-154.785,56.152,-87.891,-626.953
1738235160.142,-65.918,-145.996,54.688,-66.406,-552.246
1738235160.146,-51.758,-120.605,44.922,-6.348,471.680
1738235160.150,-33.691,-103.027,33.203,-9.766,479.980
1738235160.153,-50.781,-126.465,41.016,-36.621,1.953
1738235160.157,-63.965,-180.664,36.133,-105.469,-342.285
1738235160.161,-58.594,-149.414,30.273,-79.102,-47.852
1738235160.165,-51.270,-79.590,35.156,-6.348,130.859
1738235160.169,-54.199,-85.938,29.785,-2.441,52.734
1738235160.156,-38.574,-118.652,20.020,-18.066,150.391
1738235160.160,-24.414,-143.066,11.719,-85.938,-372.070
1738235160.164,-33.691,-120.117,19.043,-86.914,-674.316
1738235160.168,-44.922,-86.914,36.133,-17.090,-146.484
1738235160.172,-61.035,-98.145,35.156,-1.953,270.020
1738235160.176,-60.547,-112.305,21.484,-26.367,385.742
1738235160.180,-63.965,-131.836,11.719,-83.496,-179.688
1738235160.183,-77.637,-105.957,13.184,-85.938,-670.410
1738235160.187,-74.219,-58.105,24.902,-24.414,-7.324
1738235160.191,-60.059,-52.246,34.668,-4.883,264.160
1738235160.195,-49.316,-64.941,30.273,-27.832,234.375
1738235160.199,-56.641,-104.492,24.902,-80.566,40.527
1738235160.200,-54.199,-120.605,27.832,-86.426,-5.371
1738235160.204,-41.016,-59.570,26.855,-15.625,543.457
1738235160.208,-28.809,-26.855,17.090,-1.953,382.324
1738235160.212,-19.043,-54.688,7.324,-34.668,106.934
1738235160.216,-20.996,-90.820,4.395,-81.543,-123.047
1738235160.220,-34.668,-96.680,5.859,-93.262,-452.637
1738235160.224,-47.363,-54.688,8.301,-25.879,-247.070
1738235160.227,-35.645,-46.875,-1.953,-1.465,202.637
1738235160.231,-30.762,-62.500,-13.184,-24.902,676.270
1738235160.235,-36.621,-72.266,-24.414,-78.613,89.355
1738235160.239,-45.410,-76.660,-31.738,-102.539,-710.449
1738235160.243,-29.785,-35.645,-20.996,-35.156,-338.379
1738235160.245,-20.508,-7.324,-12.695,-6.836,217.285
1738235160.249,-47.363,-4.883,-13.672,-26.367,147.461
1738235160.253,-59.082,-33.203,-12.695,-61.523,-154.297
1738235160.257,-58.594,-62.500,-17.578,-92.773,-381.348
1738235160.261,-63.477,-1.465,-22.949,-50.781,-295.898
1738235160.265,-51.758,26.855,-14.648,-0.977,56.152
1738235160.269,-41.504,0.000,-7.324,9.277,347.656
1738235160.272,-35.645,-41.504,-14.160,-20.020,436.035
1738235160.276,-42.969,-45.898,-21.484,-67.871,-126.465
1738235160.280,-46.875,-1.465,-18.066,-46.875,-532.227
1738235160.284,-27.344,-4.395,-20.508,-6.836,-67.871
1738235160.288,-15.625,-20.020,-23.926,-9.277,364.746
1738235160.290,-31.738,-39.062,-35.156,-54.688,99.121
1738235160.294,-43.945,-76.660,-39.062,-109.375,-644.531
1738235160.298,-41.992,-58.105,-29.785,-66.406,-563.965
1738235160.302,-39.551,-42.969,-24.902,12.695,413.574
1738235160.335,-58.594,-97.168,-54.199,-72.754,-644.531
1738235160.339,-56.641,-67.383,-50.781,-13.672,-239.258
1738235160.343,-50.293,-83.008,-54.688,-7.812,142.578
1738235160.347,-50.781,-87.891,-59.082,-25.391,96.191
1738235160.351,-42.480,-124.023,-64.453,-68.359,-324.219
1738235160.355,-31.250,-123.535,-67.383,-81.055,-535.645
1738235160.359,-25.391,-84.473,-60.059,-23.926,235.352
1738235160.362,-34.180,-69.824,-62.988,-12.207,663.574
1738235160.366,-48.828,-67.871,-70.312,-27.344,220.703
1738235160.370,-48.828,-112.305,-72.754,-69.336,-211.426
1738235160.374,-48.828,-120.605,-70.801,-87.891,-212.891
1738235160.378,-40.039,-49.805,-68.848,-29.297,20.996
1738235160.381,-32.715,-33.691,-65.430,6.836,-33.691
1738235160.385,-41.016,-69.336,-59.082,-1.465,92.285
1738235160.389,-42.969,-104.492,-66.406,-56.152,190.430
1738235160.393,-46.387,-99.609,-76.660,-95.703,-407.715
1738235160.397,-38.574,-56.152,-65.430,-29.785,-465.820
1738235160.401,-13.184,-55.176,-61.035,14.160,214.844
1738235160.405,-3.418,-68.848,-60.059,0.488,599.121
1738235160.408,-21.484,-91.797,-62.500,-36.621,95.215
1738235160.412,-29.785,-103.516,-66.406,-77.637,-582.031
1738235160.416,-35.645,-68.359,-60.547,-44.434,-300.781
1738235160.420,-42.969,-47.363,-58.105,-15.625,366.699
1738235160.424,-53.223,-44.434,-57.129,-26.367,172.363
1738235160.442,-52.246,-87.891,-59.082,-48.340,-145.996
1738235160.446,-40.039,-124.023,-66.406,-92.285,-457.031
1738235160.450,-51.758,-76.172,-61.523,-53.223,-442.383
1738235160.454,-48.340,-49.805,-62.012,4.395,-83.496
1738235160.458,-35.156,-65.918,-68.848,3.906,78.125
1738235160.462,-32.715,-92.773,-68.359,-46.387,226.074
1738235160.466,-35.645,-113.770,-75.684,-108.887,-72.754
1738235160.469,-29.785,-71.289,-76.172,-64.941,-396.484
1738235160.473,-11.719,-49.805,-74.219,-9.766,-107.422
1738235160.477,-13.184,-77.148,-83.008,-13.672,452.148
1738235160.481,-26.855,-83.496,-93.750,-35.645,364.258
1738235160.485,-22.461,-105.957,-90.332,-94.727,-358.887
1738235160.486,-23.438,-84.961,-78.613,-59.570,-501.953
1738235160.490,-22.461,-52.734,-76.660,4.395,300.781
1738235160.494,-38.574,-40.527,-71.289,-10.254,401.855
1738235160.498,-57.617,-51.758,-72.754,-36.133,-21.973
1738235160.502,-45.410,-88.867,-86.426,-73.730,-418.457
1738235160.506,-39.551,-62.500,-87.891,-71.777,-439.941
1738235160.510,-29.785,-17.090,-77.637,-23.438,59.570
1738235160.513,-30.762,-17.578,-74.707,-11.719,113.281
1738235160.517,-40.039,-56.641,-84.961,-28.809,158.203
1738235160.521,-27.832,-107.910,-88.867,-75.684,210.449
1738235160.525,-29.785,-81.055,-81.543,-59.082,-409.668
1738235160.529,-43.457,-49.805,-81.055,12.695,-317.383
1738235160.531,-31.738,-49.805,-85.449,-7.812,175.293
1738235160.535,-26.855,-52.246,-88.867,-41.016,191.406
1738235160.539,-34.668,-77.148,-94.727,-84.961,-290.527
1738235160.543,-38.086,-52.734,-93.262,-101.562,-651.367
1738235160.547,-33.203,-7.812,-86.426,-19.531,-111.328
1738235160.551,-12.207,-2.930,-80.078,14.648,361.816
1738235160.555,-24.902,-19.531,-86.426,-8.301,332.031
1738235160.558,-49.316,-71.289,-101.074,-58.594,-107.910
1738235160.562,-41.992,-72.266,-94.238,-80.078,-200.195
1738235160.566,-45.410,9.277,-83.496,-19.043,112.305
1738235160.570,-45.898,22.949,-94.727,0.000,101.562
1738235160.574,-41.016,6.836,-97.656,-18.555,342.285
1738235160.576,-16.113,-12.207,-96.680,-56.152,316.406
1738235160.580,0.977,-13.184,-102.539,-94.238,-449.707
1738235160.584,-25.879,39.551,-88.867,-22.949,-381.348
1738235160.588,-32.227,48.340,-77.148,25.879,241.211
1738235160.592,-26.367,37.598,-86.426,-1.953,375.977
1738235160.596,-17.578,22.949,-86.426,-39.062,50.293
1738235160.600,-25.879,-19.043,-86.914,-80.566,-491.699
1738235160.603,-42.480,-11.719,-91.309,-31.738,-269.043
1738235160.607,-37.598,-4.395,-82.520,9.766,540.527
1738235160.611,-28.320,8.789,-85.449,-13.672,382.812
1738235160.615,-27.344,-25.391,-100.098,-48.828,-66.406
1738235160.619,-30.762,-64.453,-98.145,-89.355,-448.730
1738235160.621,-36.621,0.488,-95.703,-36.621,-452.637
1738235160.625,-50.781,51.758,-100.586,19.531,-46.875
1738235160.629,-33.203,57.129,-97.168,24.414,128.906
1738235160.633,-4.395,29.785,-94.238,-3.418,88.867
1738235160.637,-32.715,-12.207,-102.051,-86.426,-392.578
1738235160.641,-58.594,13.672,-102.051,-70.801,-413.574
1738235160.645,-37.109,37.598,-100.586,-5.371,186.035
1738235160.648,-31.250,28.320,-97.656,4.395,611.816
1738235160.652,-32.227,27.832,-91.797,-23.438,325.195
1738235160.656,-36.133,-4.883,-108.398,-95.215,-505.371
1738235160.660,-35.645,15.137,-109.863,-76.172,-540.039
1738235160.664,-25.879,53.711,-97.168,1.465,228.027
1738235160.666,-20.996,41.992,-111.328,10.742,299.316
1738235160.670,-13.184,5.859,-117.676,-15.137,39.062
1738235160.674,-25.391,-67.871,-124.512,-72.266,-398.926
1738235160.678,-62.988,-84.473,-144.043,-63.965,-122.559
1738235160.682,-57.129,-2.441,-145.996,12.695,393.066
1738235160.686,-31.250,41.016,-146.973,24.414,275.879
1738235160.690,-20.996,16.602,-152.344,-9.766,349.121
1738235160.693,-16.113,-18.066,-143.555,-57.617,247.559
1738235160.697,-22.461,38.086,-128.906,-59.570,-350.586
1738235160.701,-26.855,79.590,-121.582,2.930,-334.473
1738235160.705,-34.668,31.250,-114.746,14.160,134.766
1738235160.709,-34.180,9.277,-109.375,-11.230,238.281
1738235160.711,-23.438,-20.508,-108.398,-59.570,-275.391
1738235160.715,-31.738,-11.719,-96.680,-70.312,-690.430
1738235160.719,-38.574,28.809,-82.031,-19.531,-238.281
1738235160.723,-33.203,32.227,-76.172,9.766,162.598
1738235160.727,-28.320,32.715,-82.520,-0.977,167.480
1738235160.731,-43.945,-2.930,-85.938,-57.617,-74.707
1738235160.735,-38.086,-15.137,-79.102,-81.055,-125.000
1738235160.738,-19.043,81.055,-72.266,-18.555,119.141
1738235160.742,-3.418,71.289,-62.988,15.137,47.363
1738235160.746,2.930,-2.441,-64.453,-0.977,87.891
1738235160.750,-15.625,-45.898,-60.059,-41.016,34.180
1738235160.754,-31.738,-66.406,-48.828,-81.543,-341.309
1738235160.756,-22.461,5.371,-43.457,-44.922,-330.078
1738235160.760,-17.090,17.090,-34.180,-7.324,18.555
1738235160.764,-41.016,-51.758,-23.926,-4.395,580.566
1738235160.768,-37.109,-56.641,-20.508,-36.621,248.047
1738235160.772,-37.109,-61.523,-20.996,-77.148,-671.387
1738235160.776,-47.363,-38.086,-10.254,-25.391,-355.957
1738235160.780,-31.738,-9.766,-6.836,7.812,425.293
1738235160.783,-24.902,-10.742,-6.836,-12.695,294.434
1738235160.787,-30.762,-36.621,-16.113,-41.504,0.488
1738235160.791,-28.320,-58.105,-28.809,-95.215,-376.953
1738235160.795,-35.645,1.465,-20.996,-62.500,-401.855
1738235160.799,-46.387,41.016,-4.883,-3.906,-78.613
1738235160.804,-32.715,17.090,11.230,-3.906,77.637
1738235160.808,-21.484,-14.648,12.207,-38.574,247.070
1738235160.812,-29.297,-44.434,11.230,-103.516,-268.555
1738235160.816,-35.645,-20.020,24.902,-73.730,-646.484
1738235160.820,-32.715,0.488,24.414,-8.789,-134.277
1738235160.824,-26.367,-26.367,21.973,-11.230,328.125
1738235160.828,-17.578,-44.922,24.902,-36.133,312.988
1738235160.831,-44.434,-57.617,26.855,-82.520,-323.730
1738235160.835,-61.523,-19.531,26.855,-59.082,-617.676
1738235160.839,-47.363,23.438,15.625,2.930,180.664
1738235160.843,-40.527,49.805,7.324,-7.812,460.449
1738235160.847,-36.621,30.762,1.465,-32.715,129.395
1738235160.861,-41.504,-41.504,-2.930,-84.961,-296.875
1738235160.865,-30.762,-19.531,5.859,-81.543,-477.539
1738235160.869,-22.949,34.668,10.254,-6.836,-132.812
1738235160.873,-30.273,-3.906,0.977,-4.883,137.207
1738235160.877,-29.297,-34.180,-3.418,-27.832,183.105
1738235160.881,-45.898,-58.594,-13.184,-65.918,433.594
1738235160.885,-52.246,-6.348,-18.555,-78.125,159.668
1738235160.888,-25.879,64.453,-7.812,-12.207,-217.773
1738235160.892,-16.113,40.527,-12.695,13.672,45.898
1738235160.896,-20.996,19.043,-14.648,-15.625,252.930
1738235160.900,-46.387,3.418,-13.184,-69.336,-258.301
1738235160.904,-60.059,-15.625,-12.207,-82.520,-736.328
1738235160.907,-42.480,3.906,-4.395,-17.090,-364.258
1738235160.911,-32.715,12.207,-8.789,-0.488,4.395
1738235160.915,-30.762,-11.230,-17.578,-20.508,52.734
1738235160.919,-43.457,-81.055,-21.973,-61.035,-238.770
1738235160.923,-47.852,-126.465,-18.555,-78.613,-580.078
1738235160.927,-29.297,-73.730,-13.672,-13.672,-129.883
1738235160.931,-18.066,-60.059,-13.184,5.371,233.398
1738235160.934,-18.555,-74.219,-9.277,-9.277,196.777
1738235160.938,-23.926,-112.793,-17.578,-30.762,381.836
1738235160.942,-34.180,-105.957,-18.066,-82.031,53.223
1738235160.946,-46.875,-30.762,-5.371,-43.945,-391.113
1738235160.950,-44.434,-29.297,-4.395,17.578,41.504
1738235160.951,-30.762,-42.969,-6.348,7.324,517.578
1738235160.955,-20.020,-51.270,-9.766,-40.039,72.754
1738235160.959,-24.414,-76.660,-14.160,-79.590,-633.789
1738235160.963,-38.574,-27.832,-6.836,-33.691,-538.086
1738235160.967,-23.926,17.578,-9.766,-1.465,-45.898
1738235160.971,-15.625,8.301,-15.137,-11.719,306.152
1738235160.975,-35.645,-20.020,-10.254,-34.668,137.207
1738235160.978,-57.617,-52.246,-12.695,-82.520,-386.719
1738235160.982,-65.918,8.301,-7.324,-53.223,140.625
1738235160.986,-61.523,63.965,-1.953,-2.441,311.523
1738235160.990,-39.551,20.996,-3.418,-0.488,52.246
1738235160.994,-19.043,-59.570,-14.160,-32.227,85.449
1738235160.996,-30.273,-114.746,-25.879,-91.797,-383.301
1738235161.000,-48.340,-100.586,-20.508,-77.148,-695.312
1738235161.004,-46.387,-82.520,-14.648,-9.766,-301.758
1738235161.008,-38.574,-62.500,-13.184,3.418,145.508
1738235161.012,-30.273,-64.941,-12.207,-22.949,82.520
1738235161.016,-38.574,-118.652,-15.137,-65.918,-359.863
1738235161.020,-51.270,-118.164,-15.625,-62.500,-503.906
1738235161.023,-28.320,-86.914,-10.254,-3.418,199.707
1738235161.027,-7.324,-51.270,-4.883,8.301,483.398
1738235161.031,-10.254,-53.711,-8.789,-11.719,-4.395
1738235161.035,-28.809,-97.656,-14.648,-70.312,-417.969
1738235161.039,-40.527,-70.312,-15.625,-78.613,-372.559
1738235161.042,-43.945,-9.766,-16.113,-13.184,-12.695
1738235161.046,-41.504,-8.301,-10.254,-15.625,13.184
1738235161.050,-27.344,-25.391,-11.230,-27.344,38.574
1738235161.054,-36.133,-59.082,-23.438,-64.453,102.539
1738235161.058,-62.988,-41.504,-18.555,-89.355,-455.566
1738235161.062,-47.363,-1.953,-4.395,-23.926,-337.402
1738235161.066,-24.902,-9.766,-9.766,3.906,285.645
1738235161.069,-24.414,-22.461,-12.207,-5.371,677.734
1738235161.073,-28.320,-22.949,-11.230,-61.035,1.953
1738235161.077,-38.086,-23.926,-13.672,-80.566,-770.020
1738235161.081,-45.410,9.766,-11.719,-7.812,-354.980
1738235161.085,-41.016,11.230,-16.113,10.254,142.090
1738235161.087,-27.344,-19.043,-18.555,-9.277,140.137
1738235161.091,-14.160,-72.266,-24.414,-52.246,-54.199
1738235161.095,-19.043,-91.797,-27.344,-85.938,-371.094
1738235161.099,-34.180,-44.434,-13.672,-36.621,-329.590
1738235161.103,-33.203,-49.316,-16.113,-4.883,36.133
1738235161.107,-41.016,-83.984,-20.996,-0.977,308.105
1738235161.111,-40.527,-113.281,-23.926,-28.809,522.461
1738235161.114,-41.992,-86.426,-31.738,-75.684,211.426
1738235161.118,-45.898,6.836,-26.855,-18.555,-291.504
1738235161.122,-19.043,27.344,-20.020,33.203,5.371
1738235161.126,5.859,31.738,-19.531,15.625,331.543
1738235161.130,-14.648,16.113,-20.996,-25.879,186.523
1738235161.131,-35.156,-6.836,-21.484,-81.543,-475.586
1738235161.135,-27.832,27.832,-22.461,-54.688,-507.812
1738235161.139,-32.227,29.297,-19.531,-0.977,292.480
1738235161.143,-42.480,0.488,-19.531,-0.488,344.727
1738235161.147,-30.273,-52.246,-24.414,-24.902,91.797
1738235161.151,-23.438,-104.004,-29.297,-82.520,-157.715
1738235161.155,-35.645,-65.430,-24.414,-52.246,190.918
1738235161.158,-47.852,8.789,-22.949,13.672,319.824
1738235161.162,-34.180,3.906,-23.438,6.836,50.781
1738235161.166,-14.648,-29.785,-23.438,-23.926,65.430
1738235161.170,-16.113,-52.246,-27.344,-87.402,-367.188
1738235161.174,-38.574,-1.465,-26.855,-75.195,-627.441
1738235161.206,-43.945,51.758,-18.066,2.441,-188.965
1738235161.210,-29.297,21.484,-16.602,16.602,188.965
1738235161.214,-38.574,18.066,-22.949,-9.277,125.488
1738235161.218,-47.363,4.395,-30.273,-72.266,-417.480
1738235161.222,-40.527,-4.395,-31.738,-73.242,-672.852
1738235161.226,-30.273,30.762,-23.926,-11.230,44.434
1738235161.230,-22.461,43.457,-21.973,-4.395,433.105
1738235161.233,-32.227,34.180,-24.902,-21.484,277.344
1738235161.237,-48.340,17.578,-27.832,-79.590,-162.109
1738235161.241,-48.828,36.133,-24.414,-71.289,-200.195
1738235161.245,-37.598,108.398,-20.020,-3.418,313.477
1738235161.249,-40.527,114.746,-23.926,0.000,276.855
1738235161.236,-49.316,68.848,-31.250,-16.113,166.504
1738235161.240,-41.504,5.371,-38.086,-60.547,108.398
1738235161.244,-42.969,29.297,-35.645,-82.520,-505.371
1738235161.248,-52.734,89.844,-23.926,-16.602,-418.457
1738235161.252,-33.203,81.543,-19.531,3.906,46.875
1738235161.256,-7.812,64.941,-26.367,-27.832,305.176
1738235161.260,0.977,30.273,-30.762,-70.312,136.719
1738235161.263,-3.418,-5.859,-36.621,-94.238,-529.297
1738235161.267,-9.277,22.461,-35.645,-38.086,-257.324
1738235161.271,-21.973,24.902,-26.855,-4.395,204.102
1738235161.275,-21.484,-20.996,-31.250,-22.461,121.582
1738235161.279,-20.020,-68.359,-31.250,-68.848,-159.180
1738235161.281,-50.293,-92.773,-25.879,-88.867,-420.410
1738235161.285,-55.664,-47.363,-27.832,-23.926,240.234
1738235161.289,-30.762,-14.160,-24.902,-0.488,309.082
1738235161.293,-38.086,-64.941,-24.414,-14.648,63.965
1738235161.297,-49.316,-139.160,-35.156,-47.852,69.336
1738235161.301,-50.293,-156.250,-37.109,-101.562,-365.234
1738235161.305,-50.781,-83.496,-25.391,-54.688,-376.465
1738235161.308,-43.945,-49.805,-14.648,3.906,34.668
1738235161.312,-24.902,-77.637,-22.461,-5.859,512.207
1738235161.316,-14.160,-77.637,-30.273,-38.086,376.953
1738235161.320,-31.738,-100.098,-34.668,-78.613,-535.156
1738235161.324,-43.945,-79.590,-35.156,-53.711,-445.312
1738235161.326,-36.133,-45.898,-30.273,-10.254,558.105
1738235161.330,-20.996,-21.484,-33.691,-16.113,543.457
1738235161.334,-26.855,-40.039,-38.086,-37.598,-11.230
1738235161.338,-54.199,-72.754,-38.574,-89.355,-503.906
1738235161.372,-41.016,-23.926,-30.762,-24.414,107.422
1738235161.376,-44.922,-40.527,-33.691,-74.219,-363.281
1738235161.380,-35.645,-0.977,-29.785,-67.871,-560.059
1738235161.384,-23.438,33.691,-22.949,2.930,-22.949
1738235161.388,-26.367,5.859,-26.855,12.207,252.441
1738235161.392,-21.973,-52.246,-32.715,-12.695,207.520
1738235161.396,-30.762,-143.066,-44.922,-67.383,-124.023
1738235161.399,-47.363,-146.973,-42.480,-80.078,-224.121
1738235161.403,-41.016,-59.570,-24.902,-22.949,138.672
1738235161.407,-24.414,-59.082,-23.438,-6.348,56.152
1738235161.411,-20.508,-119.629,-26.367,-11.230,150.391
1738235161.415,-34.180,-173.340,-34.668,-58.105,90.820
1738235161.416,-36.133,-168.945,-37.598,-89.355,-461.914
1738235161.420,-20.508,-86.914,-35.156,-24.902,-420.410
1738235161.424,-19.531,-79.102,-39.551,2.930,167.969
1738235161.428,-33.203,-103.516,-40.039,-12.207,427.734
1738235161.432,-29.297,-112.793,-46.875,-58.594,33.691
1738235161.436,-31.250,-99.121,-46.387,-84.473,-400.391
1738235161.440,-37.598,-34.668,-30.762,-10.742,-131.348
1738235161.443,-39.062,-1.465,-39.062,23.438,632.812
1738235161.447,-52.246,43.945,-43.945,1.953,493.164
1738235161.451,-50.293,-1.953,-37.109,-48.340,-205.566
1738235161.455,-46.875,-49.805,-39.551,-94.727,-598.145
1738235161.459,-46.387,32.715,-35.156,-34.180,-446.777
1738235161.461,-36.133,73.730,-32.715,4.883,-21.973
1738235161.465,-19.043,57.129,-35.156,-11.719,97.168
1738235161.469,-9.766,0.488,-35.645,-43.457,66.406
1738235161.473,-29.297,-7.324,-43.945,-87.402,-426.758
1738235161.477,-55.176,73.730,-41.992,-47.363,-547.852
1738235161.481,-52.734,94.238,-36.133,3.906,59.082
1738235161.485,-44.922,64.453,-40.039,4.395,711.426
1738235161.488,-51.270,57.617,-50.781,-32.715,674.316
1738235161.492,-52.734,46.387,-57.617,-94.238,-367.188
1738235161.496,-32.227,55.176,-45.898,-64.453,-593.750
1738235161.500,-20.508,69.336,-49.316,2.930,181.152
1738235161.504,-21.973,109.375,-47.363,1.953,406.738
1738235161.506,-41.016,115.234,-41.992,-33.691,64.453
1738235161.510,-58.594,47.852,-53.223,-82.031,-416.016
1738235161.514,-62.012,52.734,-47.363,-55.664,-268.555
1738235161.518,-57.129,118.164,-37.598,0.000,2.441
1738235161.522,-45.410,108.398,-37.109,0.000,9.277
1738235161.526,-27.832,13.184,-36.621,-21.973,268.066
1738235161.530,-21.973,-112.793,-42.480,-67.871,152.832
1738235161.533,-30.762,-106.445,-48.828,-66.406,-416.016
1738235161.537,-35.156,-40.039,-44.434,-18.555,-268.555
1738235161.541,-22.949,-80.078,-31.738,-4.883,255.859
1738235161.545,-13.672,-118.164,-35.156,-25.391,519.043
1738235161.549,-34.180,-125.977,-41.504,-84.473,-208.008
1738235161.566,-67.383,-90.820,-33.691,-74.219,-741.699
1738235161.570,-71.777,-10.254,-29.785,-5.371,-234.863
1738235161.574,-55.664,-0.977,-28.809,-0.488,129.883
1738235161.578,-36.621,-47.363,-30.762,-12.207,56.641
1738235161.582,-33.203,-106.934,-41.504,-57.617,-231.445
1738235161.586,-27.344,-111.816,-44.922,-76.172,-296.875
1738235161.590,-8.789,-60.059,-38.086,-13.184,-30.762
1738235161.593,1.465,-50.781,-33.691,6.348,129.883
1738235161.597,-14.160,-81.543,-31.738,-1.953,119.629
1738235161.601,-22.461,-125.977,-34.668,-54.199,155.762
1738235161.605,-37.109,-68.359,-30.273,-75.195,-267.090
1738235161.609,-45.410,22.949,-23.926,-7.812,-311.035
1738235161.612,-25.391,26.367,-26.367,20.508,281.738
1738235161.616,-6.348,42.969,-26.855,10.254,704.102
1738235161.620,-16.602,53.223,-28.809,-44.922,167.969
1738235161.624,-37.109,34.668,-33.691,-91.797,-697.754
1738235161.628,-28.809,62.012,-31.738,-37.598,-462.891
1738235161.632,-4.883,64.453,-31.250,6.836,211.426
1738235161.636,-14.160,42.480,-26.855,4.883,414.062
1738235161.639,-43.457,18.066,-25.391,-34.180,-60.059
1738235161.643,-52.246,-4.883,-28.320,-78.125,-449.219
1738235161.647,-59.570,-6.348,-25.879,-39.062,66.406
1738235161.651,-37.598,-25.879,-26.855,-7.324,145.508
1738235161.655,-29.785,-98.633,-26.855,-8.301,14.160
1738235161.672,-32.715,-167.969,-24.902,-40.527,10.254
1738235161.676,-27.832,-178.223,-27.832,-94.238,-530.273
1738235161.680,-39.062,-109.375,-26.367,-55.664,-576.660
1738235161.684,-36.133,-57.129,-24.902,-14.648,-160.156
1738235161.688,-26.855,-79.590,-24.902,-24.414,235.840
1738235161.692,-30.762,-119.141,-22.461,-38.086,311.523
1738235161.696,-40.527,-162.598,-29.297,-84.473,-353.516
1738235161.699,-55.176,-129.883,-32.227,-70.312,-666.504
1738235161.703,-37.109,-110.840,-25.879,-2.441,169.434
1738235161.707,-22.461,-124.023,-27.344,11.719,683.594
1738235161.711,-26.367,-143.555,-30.762,-18.555,100.098
1738235161.715,-25.879,-234.863,-33.203,-85.449,-408.203
1738235161.701,-37.598,-229.492,-33.203,-79.590,-318.848
1738235161.705,-64.941,-155.273,-27.832,-8.789,-94.238
1738235161.709,-47.852,-162.109,-24.902,8.789,-6.348
1738235161.713,-21.484,-195.801,-34.668,-23.926,10.254
1738235161.717,-25.879,-232.422,-43.945,-90.332,-257.812
1738235161.721,-33.203,-229.980,-34.180,-96.680,-451.172
1738235161.725,-32.715,-209.473,-21.973,-23.926,-85.938
1738235161.728,-34.668,-226.074,-29.785,-1.465,216.797
1738235161.732,-31.250,-232.910,-37.109,-24.414,242.676
1738235161.736,-46.387,-270.508,-42.480,-79.102,-199.219
1738235161.740,-69.824,-260.254,-41.992,-91.797,-696.777
1738235161.744,-59.082,-202.148,-35.156,-24.902,-186.523
1738235161.746,-51.270,-199.707,-33.691,-3.418,707.031
1738235161.750,-46.875,-184.570,-34.180,-30.762,385.254
1738235161.754,-23.926,-202.637,-38.574,-82.520,-308.105
1738235161.758,-30.273,-205.566,-46.875,-96.680,-543.457
1738235161.762,-54.688,-149.902,-40.527,-27.344,-295.898
1738235161.766,-54.199,-154.297,-35.156,4.395,197.754
1738235161.770,-43.945,-168.457,-41.504,-17.578,273.438
1738235161.773,-30.273,-211.914,-46.387,-71.777,304.199
1738235161.777,-41.992,-202.148,-52.246,-111.328,115.234
1738235161.781,-48.828,-102.539,-45.898,-49.316,-312.500
1738235161.785,-23.438,-97.168,-38.574,2.930,91.309
1738235161.789,2.930,-114.746,-38.574,4.395,572.754
1738235161.791,-14.160,-124.023,-40.039,-36.133,23.438
1738235161.795,-37.109,-142.578,-37.598,-88.867,-695.312
1738235161.799,-23.926,-104.980,-35.645,-32.227,-531.738
1738235161.803,-14.648,-88.867,-30.762,7.324,22.461
1738235161.807,-29.785,-116.211,-25.879,-13.184,158.691
1738235161.811,-41.016,-142.578,-34.668,-45.898,14.648
1738235161.815,-30.273,-145.508,-41.504,-86.426,-249.512
1738235161.818,-19.531,-87.891,-32.715,-41.992,90.332
1738235161.822,-15.137,-26.367,-26.855,12.207,195.801
1738235161.826,-14.648,-46.875,-23.926,14.648,159.668
1738235161.830,-12.207,-86.914,-30.273,-28.320,151.855
1738235161.834,-36.621,-103.516,-35.645,-81.055,-379.883
1738235161.866,-46.875,-56.641,-22.461,-50.293,-608.398
1738235161.870,-24.902,-34.180,-20.508,1.953,-160.156
1738235161.874,-15.625,-66.895,-40.527,0.000,225.586
1738235161.878,-21.484,-81.055,-41.992,-36.133,97.656
1738235161.882,-13.672,-99.609,-34.668,-85.449,-489.258
1738235161.886,-25.879,-67.871,-34.180,-66.895,-493.164
1738235161.890,-40.527,-33.203,-31.250,-16.113,357.910
1738235161.893,-29.785,-15.137,-31.738,-12.207,605.469
1738235161.897,-24.902,-18.066,-36.133,-39.551,77.637
1738235161.901,-33.691,-54.688,-50.781,-88.867,-436.035
1738235161.905,-30.273,-21.484,-53.223,-72.754,-375.488
1738235161.909,-23.926,49.316,-48.340,-21.484,60.059
1738235161.896,-31.250,62.500,-50.293,-17.578,190.430
1738235161.900,-33.691,32.227,-51.270,-27.344,140.137
1738235161.904,-31.250,-13.184,-49.316,-88.379,-67.383
1738235161.908,-33.203,2.441,-42.969,-90.332,-524.414
1738235161.912,-4.395,39.062,-34.668,-14.160,-305.664
1738235161.916,12.207,18.066,-32.227,-13.184,337.402
1738235161.920,-16.113,-38.086,-39.551,-32.715,804.199
1738235161.923,-28.320,-79.590,-49.316,-80.078,12.207
1738235161.927,-32.227,-74.219,-51.270,-100.098,-714.844
1738235161.931,-6.348,-18.555,-39.062,-12.207,-231.445
1738235161.935,-9.277,8.789,-32.227,13.184,215.332
1738235161.939,-22.461,-12.207,-34.668,-8.789,186.523
1738235161.941,-18.555,-54.199,-34.668,-43.457,-261.719
1738235161.945,-13.672,-77.148,-34.180,-56.641,-447.266
1738235161.949,-11.719,-28.809,-31.250,-1.465,405.273
1738235161.953,7.812,18.555,-26.367,39.062,370.605
1738235161.957,20.508,-13.184,-20.508,36.133,15.137
1738235161.961,-13.184,-84.961,-24.414,-21.973,157.715
1738235161.965,-28.809,-92.285,-29.297,-62.500,-330.566
1738235161.968,-30.762,-29.785,-15.625,-5.371,-486.328
1738235161.972,-21.973,-35.156,1.953,44.434,-50.293
1738235161.976,-7.324,-96.191,1.465,37.109,476.074
1738235161.980,-5.371,-115.723,-6.836,-21.973,394.531
1738235161.984,-7.812,-115.723,-12.695,-79.590,-500.000
1738235161.986,-2.930,-79.590,0.000,-26.855,-522.949
1738235161.990,15.137,-54.199,1.465,34.180,301.270
1738235161.994,9.277,-43.945,-3.906,20.508,276.367
1738235161.998,-13.184,-72.266,-3.418,-15.137,-136.230
1738235162.002,-23.438,-117.188,-9.766,-72.754,-490.723
1738235162.006,-26.855,-84.473,-11.230,-44.922,-321.777
1738235162.010,-12.207,-62.500,-16.602,10.254,141.602
1738235162.013,-6.836,-67.871,-22.461,10.254,176.758
1738235162.017,5.371,-92.773,-17.090,-1.465,97.656
1738235162.021,10.254,-132.812,-16.602,-63.965,111.328
1738235162.025,-25.391,-73.730,-17.090,-54.688,-268.066
1738235162.029,-33.691,-47.363,-4.883,9.766,-192.383
1738235162.031,-20.508,-70.801,5.859,15.137,168.945
1738235162.035,-20.996,-84.961,1.953,-9.277,62.500
1738235162.039,-33.691,-120.605,-9.277,-77.148,-462.402
1738235162.043,-41.504,-91.309,-7.324,-63.965,-625.977
1738235162.047,-16.113,-53.711,-3.418,-0.977,-105.469
1738235162.051,4.395,-50.781,-4.395,-0.977,296.875
1738235162.055,-4.883,-53.711,-0.977,-18.555,320.312
1738235162.058,-19.043,-87.402,-0.488,-79.590,-282.227
1738235162.062,-32.715,-91.797,-5.859,-88.867,-145.996
1738235162.066,-43.945,-44.922,-5.859,-6.348,520.508
1738235162.070,-36.621,-35.156,-8.789,14.648,261.230
1738235162.074,-19.043,-72.266,-20.020,-37.109,296.387
1738235162.076,-20.508,-124.512,-29.785,-95.215,215.820
1738235162.080,-27.832,-105.469,-23.438,-93.750,-407.715
1738235162.084,0.488,-58.594,-18.555,-31.250,-260.742
1738235162.088,-0.488,-72.754,-16.113,-10.254,164.062
1738235162.092,-22.949,-89.844,-6.348,-7.324,223.145
1738235162.096,-15.625,-117.188,-13.672,-51.758,-16.602
1738235162.100,-20.020,-116.211,-18.555,-71.289,-477.539
1738235162.103,-28.809,-73.242,-3.906,-1.953,-145.508
1738235162.107,-28.320,-69.824,8.789,10.254,624.023
1738235162.111,-25.879,-67.383,8.301,-16.602,422.852
1738235162.115,-16.113,-95.215,1.465,-58.594,-128.906
1738235162.119,-25.879,-116.211,4.395,-74.707,-470.703
1738235162.121,-17.578,-58.105,11.719,-5.371,-213.867
1738235162.125,-8.301,-36.133,18.066,31.250,31.738
1738235162.129,-18.066,-60.059,20.020,18.066,76.172
1738235162.133,-50.293,-89.355,10.254,-28.809,2.930
1738235162.137,-55.176,-86.426,9.277,-65.918,-469.727
1738235162.141,-29.785,-27.832,17.578,-6.348,-288.574
1738235162.145,-20.996,-5.859,16.113,30.273,182.129
1738235162.148,-6.348,-35.156,14.160,38.574,541.992
1738235162.152,12.695,-43.457,11.230,12.695,424.805
1738235162.156,-20.996,-46.387,0.000,-42.969,-547.852
1738235162.160,-30.762,-22.461,0.977,-9.766,-504.883
1738235162.164,-19.531,-3.906,5.371,26.367,408.691
1738235162.167,-31.738,0.488,-2.441,-0.977,436.523
1738235162.171,-30.762,-15.625,-4.395,-30.762,-4.883
1738235162.175,-33.203,-74.707,1.465,-77.637,-381.836
1738235162.179,-29.785,-47.363,1.465,-57.129,-143.555
1738235162.183,-18.555,14.160,7.812,-3.418,120.117
1738235162.187,-36.133,0.977,22.949,6.836,211.914
1738235162.191,-45.410,-26.367,19.043,-20.508,342.285
1738235162.194,-24.902,-52.246,15.137,-64.453,154.785
1738235162.198,-29.785,15.625,28.809,-53.711,-347.168
1738235162.202,-33.691,53.223,34.668,-10.254,-204.590
1738235162.206,-17.090,27.832,30.273,3.906,174.805
1738235162.210,-11.230,25.879,22.461,-15.137,145.020
1738235162.213,-16.602,-1.953,18.555,-65.430,-390.625
1738235162.217,-14.648,0.977,14.160,-62.012,-658.691
1738235162.221,-17.578,36.133,8.301,-3.906,-55.176
1738235162.225,-37.109,62.988,0.000,0.488,276.855
1738235162.229,-45.410,61.523,-6.348,-30.762,114.258
1738235162.233,-53.223,19.043,-10.742,-84.473,-247.559
1738235162.237,-60.547,20.020,-10.254,-94.727,-17.090
1738235162.240,-29.785,72.266,2.441,-29.297,615.234
1738235162.244,-14.648,101.562,6.348,2.441,274.902
1738235162.248,-24.414,73.730,6.836,-12.207,45.410
1738235162.252,-20.996,24.902,6.836,-64.941,-125.000
1738235162.256,-36.621,40.527,12.207,-68.359,-545.898
1738235162.255,-30.273,96.680,12.207,5.371,-378.906
1738235162.259,-25.391,89.844,2.930,26.855,81.055
1738235162.263,-29.785,61.523,-9.277,7.324,389.648
1738235162.267,-34.180,31.250,-20.020,-47.852,-67.383
1738235162.271,-36.621,26.855,-21.973,-71.289,-674.316
1738235162.275,-13.672,67.383,-14.160,3.418,-200.195
1738235162.279,-0.488,61.523,-2.441,38.086,786.621
1738235162.282,-14.648,68.848,5.859,4.883,759.277
1738235162.286,-19.043,52.734,8.301,-32.715,-122.070
1738235162.290,-5.859,24.902,13.672,-65.430,-594.238
1738235162.294,-10.742,70.801,28.809,-20.020,-323.730
1738235162.298,-29.785,81.055,47.363,31.250,-26.367
1738235162.316,-19.531,59.082,51.270,26.855,51.270
1738235162.320,-20.996,22.949,33.691,-15.625,27.344
1738235162.324,-30.273,12.695,10.742,-61.523,-402.344
1738235162.328,-7.324,67.871,6.348,-16.113,-521.484
1738235162.332,0.000,74.707,24.414,20.508,-107.422
1738235162.336,-8.301,41.504,45.898,28.809,384.277
1738235162.340,5.371,18.066,56.641,5.859,199.707
1738235162.343,5.371,0.488,66.895,-63.965,-497.070
1738235162.347,-14.648,19.043,69.336,-28.320,-509.766
1738235162.351,-25.391,8.301,56.641,33.203,307.617
1738235162.355,-43.945,2.930,50.781,17.090,675.781
1738235162.359,-54.199,-6.836,54.688,-33.203,154.785
1738235162.360,-52.246,-61.523,43.945,-96.191,-426.270
1738235162.364,-26.367,-51.270,40.527,-52.246,-204.590
1738235162.368,10.742,-7.324,54.688,22.949,98.633
1738235162.372,-15.137,-26.855,62.988,-12.695,71.289
1738235162.406,-9.277,-63.477,70.801,13.184,-96.680
1738235162.410,-20.020,-61.035,76.172,7.324,300.781
1738235162.414,-30.762,-69.824,74.707,-18.555,117.188
1738235162.418,-30.273,-97.168,67.871,-72.266,-298.340
1738235162.422,-42.969,-83.496,69.824,-79.590,-486.816
1738235162.426,-41.504,-31.250,70.312,-14.160,27.832
1738235162.430,-28.809,-28.320,63.965,2.930,407.715
1738235162.433,-33.691,-46.387,48.828,-12.207,217.773
1738235162.437,-39.551,-94.727,41.016,-51.758,104.492
1738235162.441,-37.598,-78.613,41.016,-72.754,-179.199
1738235162.445,-31.738,-30.273,39.551,-16.602,-253.418
1738235162.449,-19.531,-52.246,43.945,13.672,172.363
1738235162.451,-15.625,-71.777,36.621,-6.348,565.918
1738235162.455,-27.344,-77.637,27.344,-60.547,110.840
1738235162.459,-38.574,-78.613,28.809,-78.125,-711.426
1738235162.463,-29.297,-45.410,36.133,-8.789,-453.613
1738235162.467,-10.742,-34.180,39.062,18.066,72.266
1738235162.471,-14.160,-56.641,42.480,5.371,166.992
1738235162.475,-17.578,-81.055,43.457,-35.156,-48.340
1738235162.478,-35.645,-94.238,39.551,-63.965,-362.793
1738235162.482,-35.156,-68.359,50.781,-0.488,172.363
1738235162.486,-15.137,-34.180,48.340,29.297,266.113
1738235162.490,-20.020,-55.664,34.180,1.465,24.902
1738235162.494,-26.367,-89.844,32.715,-40.039,35.156
1738235162.496,-36.133,-88.867,34.180,-90.820,-442.871
1738235162.500,-44.922,-53.223,33.691,-51.270,-574.707
1738235162.504,-34.668,-47.852,35.645,9.766,-132.324
1738235162.508,-41.504,-71.777,34.668,1.465,324.707
1738235162.512,-13.672,-84.961,28.809,-26.855,205.566
1738235162.516,-14.160,-102.539,22.949,-75.195,-409.180
1738235162.520,-56.152,-74.219,25.391,-46.875,-439.453
1738235162.523,-42.480,-50.781,22.461,10.254,297.363
1738235162.527,-14.648,-42.969,20.508,-20.020,579.102
1738235162.531,-28.320,-48.340,21.973,-38.574,-24.414
1738235162.535,-37.109,-86.914,8.789,-72.266,-445.801
1738235162.539,-33.691,-69.824,14.160,-59.082,-94.238
1738235162.542,-39.062,-27.832,19.043,-11.719,83.008
1738235162.546,-27.344,-37.109,10.254,-23.926,21.973
1738235162.550,-21.973,-58.594,10.254,-34.668,71.777
1738235162.554,-45.898,-90.332,2.441,-77.148,-312.012
1738235162.558,-51.758,-74.219,4.395,-70.801,-571.777
1738235162.562,-41.992,-37.109,8.301,-9.766,-53.711
1738235162.566,-47.363,-59.082,8.301,-7.812,459.473
1738235162.569,-58.594,-83.496,10.742,-35.156,860.352
1738235162.573,-47.852,-83.984,2.441,-112.793,120.117
1738235162.577,-34.180,-72.754,-2.930,-120.605,-697.266
1738235162.581,-44.434,-47.363,-3.418,-37.598,-270.996
1738235162.585,-38.574,-36.133,-6.348,-25.391,77.148
1738235162.588,-35.156,-46.875,-6.348,-41.504,56.152
1738235162.592,-40.039,-83.984,-13.184,-103.027,-337.891
1738235162.596,-42.969,-79.590,-19.043,-115.234,-554.688
1738235162.600,-33.691,-30.762,-9.277,-37.598,-189.941
1738235162.604,-15.137,-30.762,-4.395,-20.508,98.633
1738235162.608,-24.902,-57.617,-9.277,-35.156,282.715
1738235162.612,-19.531,-97.168,-13.184,-87.402,276.855
1738235162.615,-34.668,-78.125,-5.859,-104.980,-91.309
1738235162.619,-60.059,-16.602,3.906,-33.203,-162.598
1738235162.623,-41.504,-24.902,1.465,3.418,67.871
1738235162.627,-39.551,-57.129,-2.441,5.371,398.438
1738235162.631,-51.270,-75.195,-0.977,-56.152,116.211
1738235162.646,-52.246,-68.359,-4.883,-108.398,-600.098
1738235162.650,-33.203,-30.762,-4.883,-38.086,-383.301
1738235162.654,-29.297,-28.809,2.441,8.301,227.051
1738235162.658,-36.621,-28.809,-2.930,-10.742,237.793
1738235162.662,-27.832,-45.898,-16.113,-58.594,-102.539
1738235162.666,-29.785,-76.660,-19.043,-98.633,-378.906
1738235162.670,-36.133,-61.035,-17.090,-41.016,305.176
1738235162.673,-38.086,-8.301,-10.254,-6.348,603.027
1738235162.677,-45.410,-0.977,-6.348,-20.020,141.602
1738235162.681,-44.922,-47.363,-15.625,-49.805,-37.598
1738235162.685,-61.523,-78.613,-23.926,-97.656,-464.355
1738235162.689,-68.359,-41.504,-19.043,-47.852,-530.762
1738235162.691,-49.805,-23.926,-9.766,-3.418,-95.703
1738235162.695,-40.527,-47.852,-9.277,-20.020,279.297
1738235162.699,-43.457,-56.641,-21.484,-53.223,317.871
1738235162.703,-44.922,-86.914,-23.926,-101.562,-395.508
1738235162.707,-29.785,-76.172,-20.996,-63.477,-590.332
1738235162.711,-51.270,-49.316,-24.414,-7.812,233.398
1738235162.715,-79.590,-43.457,-28.809,-27.344,525.879
1738235162.718,-53.711,-48.828,-33.203,-59.082,146.484
1738235162.722,-47.852,-80.078,-27.344,-99.609,-466.309
1738235162.726,-59.570,-67.871,-27.344,-88.867,-307.617
1738235162.730,-58.594,-24.902,-26.855,-25.391,287.598
1738235162.734,-47.363,-25.879,-17.578,-8.789,242.188
1738235162.736,-39.062,-51.758,-21.973,-40.039,104.980
1738235162.740,-39.551,-92.773,-29.297,-102.051,67.383
1738235162.744,-77.148,-64.453,-28.809,-100.586,-303.223
1738235162.748,-84.473,-25.391,-25.879,-33.691,-224.609
1738235162.752,-72.266,-42.969,-19.531,-19.043,111.328
1738235162.756,-59.082,-57.129,-13.184,-35.156,166.504
1738235162.760,-26.367,-74.219,-18.555,-76.172,-104.492
1738235162.763,-27.832,-64.453,-30.762,-87.402,-592.285
1738235162.767,-32.227,-42.969,-24.902,-22.949,-169.434
1738235162.771,-32.715,-50.293,-23.438,16.113,666.016
1738235162.775,-26.367,-37.109,-25.391,-3.906,364.746
1738235162.779,-7.812,-68.359,-21.484,-61.523,-309.082
1738235162.782,-13.184,-78.125,-16.113,-72.266,-584.961
1738235162.786,-29.297,-29.785,-13.672,-8.789,-306.641
1738235162.790,-29.297,-24.414,-20.020,17.578,35.645
1738235162.794,-36.621,-41.992,-21.484,-0.488,163.086
1738235162.798,-19.531,-84.473,-24.414,-42.969,30.273
1738235162.802,-0.977,-90.332,-22.461,-49.805,-401.855
1738235162.806,-0.977,-24.414,-17.578,10.742,-242.188
1738235162.809,2.441,-23.926,-5.371,37.109,137.695
1738235162.813,8.301,-55.664,1.465,32.227,512.695
1738235162.817,-14.160,-57.617,-5.859,-17.578,318.848
1738235162.821,-18.066,-58.594,-11.230,-63.965,-555.664
1738235162.825,10.742,-30.762,-9.277,19.531,-256.348
1738235162.827,8.789,-4.883,-4.395,61.523,468.262
1738235162.831,5.371,0.000,-2.930,22.461,359.863
1738235162.835,18.066,-33.691,-9.277,-10.254,-121.582
1738235162.839,22.949,-53.223,-10.742,-49.316,-598.633
1738235162.843,37.598,-20.020,-2.930,11.230,-437.500
1738235162.847,14.648,-8.789,1.465,56.641,127.930
1738235162.851,-15.137,-16.113,0.488,32.715,307.617
1738235162.854,-23.438,-38.574,-1.953,8.789,226.074
1738235162.858,-32.227,-62.012,-10.254,-42.480,84.473
1738235162.862,-25.391,-6.348,-7.324,1.465,-172.363
1738235162.866,-16.602,17.090,0.000,53.223,-102.539
1738235162.870,-2.441,-8.789,-1.953,38.574,160.156
1738235162.871,2.441,-17.090,-9.766,6.348,55.176
1738235162.875,-16.113,-37.598,-15.625,-46.387,-508.301
1738235162.879,-13.184,-20.020,-2.441,-3.418,-598.633
1738235162.883,8.789,8.301,-0.977,54.199,-7.812
1738235162.887,1.465,6.348,-2.930,54.688,241.211
1738235162.891,-11.719,-18.555,-6.348,33.203,225.586
1738235162.895,-18.066,-51.270,-16.113,-29.785,-186.035
1738235162.898,-18.555,-47.363,-14.648,2.930,-240.234
1738235162.902,-18.066,-11.719,-6.348,67.383,230.469
1738235162.906,-6.348,7.324,-9.766,39.551,222.656
1738235162.910,18.555,-17.578,-14.648,1.953,159.180
1738235162.914,5.371,-65.430,-27.344,-50.293,4.395
1738235162.916,-12.207,-33.691,-27.344,-41.992,-466.797
1738235162.920,9.766,14.648,-12.695,43.457,-220.215
1738235162.924,3.418,7.324,-15.137,61.035,151.367
1738235162.928,-13.184,-34.180,-24.414,24.414,638.184
1738235162.932,-14.648,-50.781,-24.902,-39.062,413.574
1738235162.936,-25.879,-25.879,-20.996,-53.711,-437.988
1738235162.940,-33.691,-1.465,-18.555,9.277,-84.473
1738235162.943,-16.602,-11.230,-18.555,31.738,688.477
1738235162.947,4.395,-6.348,-20.996,7.324,382.812
1738235162.951,-7.324,-41.504,-37.598,-50.293,-304.688
1738235162.955,-30.273,-66.406,-37.598,-62.012,-468.750
1738235162.959,-20.508,-18.555,-21.973,3.906,-150.391
1738235162.961,-29.785,3.418,-24.414,30.273,51.758
1738235162.965,-31.738,3.418,-34.180,20.996,111.816
1738235162.969,-6.348,-35.645,-35.156,-30.762,-61.523
1738235162.973,-19.043,-43.945,-44.922,-83.984,-518.555
1738235162.977,-31.250,-2.930,-35.156,-37.598,-394.043
1738235162.981,-11.719,-1.953,-18.066,8.789,133.301
1738235162.985,-8.789,-16.113,-27.832,4.395,602.539
1738235162.988,-40.039,-33.203,-44.434,-41.504,416.016
1738235162.992,-46.875,-41.504,-38.086,-61.523,-484.375
1738235162.996,-34.668,-3.906,-27.832,-6.836,-405.762
1738235163.000,-19.531,6.836,-31.738,11.230,175.293
1738235163.004,-5.859,-9.277,-38.574,-7.812,301.758
1738235163.007,-1.953,-19.043,-43.457,-34.668,33.203
1738235163.011,-7.812,-37.598,-49.805,-83.984,-350.098
1738235163.015,-29.785,-15.625,-48.828,-42.480,43.457
1738235163.019,-26.367,34.180,-39.551,11.230,305.664
