timestamps,TP9,AF7,AF8,TP10,Right AUX
1738232988.373,-19.043,-18.066,-29.297,-44.434,-38.086
1738232988.377,-29.297,-20.020,-34.668,-45.410,-54.688
1738232988.381,-53.711,-14.160,-30.273,-40.527,-165.039
1738232988.385,-42.969,-10.742,-27.832,-50.781,-210.938
1738232988.389,-9.766,-8.789,-27.344,-56.152,-70.312
1738232988.393,-0.977,-9.277,-22.949,-30.762,558.594
1738232988.397,-32.715,-17.090,-30.273,-25.391,450.684
1738232988.400,-62.988,-22.461,-31.738,-27.344,-83.496
1738232988.404,-47.363,-19.531,-30.762,-31.250,-3.906
1738232988.408,-26.367,-22.949,-36.621,-56.641,-26.855
1738232988.412,-19.043,-20.020,-36.133,-62.500,-275.391
1738232988.416,-32.227,-20.996,-38.086,-55.664,-263.184
1738232988.449,-56.152,-28.809,-38.574,-46.387,-71.777
1738232988.453,-46.875,-23.926,-43.457,-29.297,-66.895
1738232988.457,-25.391,-21.484,-44.434,-29.785,-202.148
1738232988.461,-21.484,-20.996,-40.039,-48.340,-199.707
1738232988.465,-21.484,-22.949,-41.016,-43.945,-62.500
1738232988.469,-38.086,-22.949,-40.039,-20.020,-53.223
1738232988.473,-46.875,-19.531,-37.598,-27.832,27.344
1738232988.476,-17.578,-18.066,-31.738,-42.480,56.152
1738232988.480,-11.230,-22.461,-27.832,-34.180,303.223
1738232988.484,-22.461,-22.461,-28.809,-21.973,333.008
1738232988.488,-34.668,-19.531,-30.762,-13.184,-178.711
1738232988.492,-40.039,-23.926,-28.809,-0.977,-157.715
1738232988.482,-19.043,-22.461,-27.344,-33.691,40.039
1738232988.486,-1.465,-21.484,-33.203,-50.781,-166.992
1738232988.490,0.000,-23.926,-37.109,-35.156,-194.824
1738232988.494,-30.273,-30.273,-26.367,-32.227,-55.176
1738232988.498,-50.781,-31.250,-19.043,-34.668,-7.812
1738232988.502,-15.625,-24.414,-25.879,-37.598,-19.043
1738232988.506,5.859,-24.414,-26.855,-14.160,-32.715
1738232988.509,-24.902,-24.414,-24.414,-18.555,-4.883
1738232988.513,-49.805,-27.344,-30.273,-30.273,39.062
1738232988.517,-51.758,-28.320,-29.785,-18.555,-14.160
1738232988.521,-33.203,-24.414,-26.855,-26.367,-163.086
1738232988.525,-8.789,-27.344,-28.809,-20.996,-74.219
1738232988.523,-4.883,-20.020,-24.902,-7.812,-101.562
1738232988.527,-24.414,-10.742,-21.484,-20.996,-243.652
1738232988.531,-35.156,-17.090,-19.043,-17.090,-117.676
1738232988.535,-18.555,-24.414,-17.090,11.719,127.441
1738232988.539,-20.020,-20.996,-18.555,11.719,-3.906
1738232988.543,-20.020,-21.973,-19.531,-22.461,-114.746
1738232988.547,-11.230,-25.879,-27.832,-53.711,-9.277
1738232988.550,-18.555,-19.043,-26.855,-51.270,123.047
1738232988.554,-12.207,-17.578,-25.391,-47.852,-27.832
1738232988.558,-6.348,-25.391,-28.809,-42.969,-260.254
1738232988.562,-15.137,-25.879,-29.785,-33.691,-234.375
1738232988.566,-32.715,-30.762,-29.297,-22.949,312.012
1738232988.569,-56.641,-35.645,-33.203,-33.691,857.422
1738232988.573,-39.062,-32.227,-36.621,-52.246,744.141
1738232988.577,-18.555,-26.367,-34.180,-57.617,72.754
1738232988.581,-24.414,-19.043,-27.344,-53.223,-279.785
1738232988.585,-24.902,-14.648,-22.949,-36.621,-302.246
1738232988.589,-35.645,-16.113,-21.973,-26.855,-182.129
1738232988.593,-36.621,-23.926,-24.902,-37.109,95.215
1738232988.596,-28.320,-22.949,-30.273,-42.480,-58.594
1738232988.600,-25.879,-22.949,-39.551,-27.832,-303.223
1738232988.604,-32.227,-26.367,-36.621,-19.531,-342.285
1738232988.608,-51.270,-26.855,-30.273,-23.438,-23.926
1738232988.612,-50.781,-25.391,-37.109,-26.367,438.965
1738232988.599,-36.621,-26.367,-40.527,-35.156,-48.828
1738232988.603,-39.551,-28.809,-36.621,-28.320,-310.059
1738232988.607,-43.457,-31.250,-37.109,-28.809,-116.699
1738232988.611,-61.523,-30.273,-41.016,-28.809,-149.902
1738232988.615,-59.082,-27.344,-36.621,-36.621,-201.660
1738232988.619,-25.391,-30.762,-27.832,-33.691,-118.652
1738232988.623,-22.461,-30.762,-27.832,-25.391,83.008
1738232988.626,-36.133,-28.809,-35.156,-54.199,-78.613
1738232988.630,-49.316,-24.414,-37.109,-54.199,-245.605
1738232988.634,-39.062,-21.973,-32.227,-26.855,-134.277
1738232988.638,-19.043,-28.809,-32.715,-16.602,291.992
1738232988.642,-20.996,-27.344,-39.062,-29.785,239.746
1738232988.643,-27.832,-28.320,-34.180,-27.344,-86.914
1738232988.647,-62.012,-31.738,-30.273,-15.625,-56.641
1738232988.651,-60.547,-33.203,-32.715,-20.996,150.879
1738232988.655,-23.926,-31.738,-33.203,-35.156,-60.547
1738232988.659,-14.648,-29.785,-32.227,-43.457,-233.887
1738232988.663,-8.789,-37.109,-26.367,-36.621,54.199
1738232988.667,-23.438,-37.598,-22.949,-22.949,528.320
1738232988.670,-51.758,-33.203,-29.785,-24.414,141.602
1738232988.674,-27.832,-35.645,-35.645,-31.738,-241.211
1738232988.678,-3.906,-25.391,-34.668,-50.293,-72.266
1738232988.682,-20.508,-18.066,-30.273,-48.828,-137.695
1738232988.686,-41.992,-27.344,-30.273,-24.902,-276.367
1738232988.703,-45.410,-31.738,-28.320,-16.113,-180.176
1738232988.707,-19.043,-29.297,-26.367,-26.855,-60.547
1738232988.711,-7.324,-30.273,-29.785,-31.738,-135.254
1738232988.715,-9.277,-29.785,-35.645,-23.926,-266.113
1738232988.719,-20.020,-25.879,-32.227,-17.578,-117.676
1738232988.723,-31.250,-24.902,-25.391,-14.648,194.336
1738232988.727,-2.441,-26.367,-34.180,-16.113,73.242
1738232988.730,-1.465,-30.273,-27.344,-44.922,-139.648
1738232988.734,-36.621,-34.180,-14.160,-65.918,-150.879
1738232988.738,-63.965,-33.691,-15.625,-47.852,294.434
1738232988.742,-99.609,-36.621,-21.973,-57.129,318.848
1738232988.746,-83.496,-34.668,-25.391,-79.102,-156.250
1738232988.748,-66.895,-36.621,-21.484,-109.375,-133.789
1738232988.752,-87.402,-32.715,-21.973,-122.559,96.680
1738232988.756,-94.727,-31.250,-27.344,-104.004,-123.535
1738232988.760,-107.910,-38.086,-28.320,-96.191,-237.793
1738232988.764,-90.332,-31.738,-23.926,-96.680,-146.973
1738232988.768,-57.617,-26.367,-23.926,-86.914,-55.664
1738232988.772,-52.734,-26.367,-24.414,-72.266,1.465
1738232988.775,-71.777,-26.855,-20.508,-60.547,-224.609
1738232988.779,-86.914,-29.785,-16.113,-46.387,-45.410
1738232988.783,-66.406,-27.832,-19.043,-47.852,534.668
1738232988.787,-41.504,-18.066,-33.691,-59.082,39.551
1738232988.791,-41.992,-22.461,-31.738,-59.082,-338.867
1738232988.793,-50.781,-27.344,-23.926,-54.199,-96.191
1738232988.797,-69.336,-19.531,-25.879,-46.387,-118.652
1738232988.801,-57.129,-20.508,-29.785,-42.480,-202.637
1738232988.805,-23.438,-25.879,-29.297,-46.875,-224.121
1738232988.809,-26.367,-30.273,-34.668,-60.547,-144.531
1738232988.813,-50.293,-32.227,-39.062,-57.617,-50.781
1738232988.817,-67.383,-21.973,-30.273,-37.109,-83.008
1738232988.820,-62.500,-19.043,-25.879,-32.227,-110.840
1738232988.824,-34.180,-28.809,-23.926,-27.832,232.910
1738232988.828,-33.691,-29.785,-25.391,-37.109,90.332
1738232988.832,-41.992,-20.996,-26.855,-56.641,-281.250
1738232988.836,-55.664,-15.625,-24.414,-59.570,-179.688
1738232988.838,-52.734,-20.508,-22.461,-47.363,1.465
1738232988.842,-29.297,-27.344,-26.855,-36.133,7.812
1738232988.846,-20.020,-24.902,-30.762,-43.945,-268.066
1738232988.850,-21.973,-26.855,-26.367,-31.250,-287.598
1738232988.854,-45.410,-40.039,-23.438,-17.578,104.980
1738232988.858,-46.875,-39.551,-24.414,-23.438,-1.953
1738232988.862,-17.578,-31.738,-28.320,-42.969,-279.785
1738232988.865,-17.578,-38.086,-30.273,-47.363,-148.438
1738232988.869,-23.926,-41.992,-30.273,-33.691,204.102
1738232988.873,-47.852,-35.645,-37.109,-34.668,-141.602
1738232988.877,-58.105,-37.109,-39.062,-31.738,-305.176
1738232988.881,-26.855,-37.109,-31.250,-47.363,-134.766
1738232988.886,-23.438,-28.809,-27.344,-58.594,-263.184
1738232988.890,-35.645,-31.250,-28.320,-51.270,-366.699
1738232988.894,-43.457,-33.691,-32.715,-35.645,-141.113
1738232988.898,-54.199,-31.250,-38.574,-13.672,154.297
1738232988.902,-32.715,-35.156,-40.527,-36.621,-53.223
1738232988.906,-14.160,-43.457,-33.203,-63.965,-191.895
1738232988.910,-21.973,-43.945,-30.273,-73.242,-156.738
1738232988.913,-45.410,-44.922,-38.574,-59.082,137.207
1738232988.917,-63.965,-42.969,-41.016,-30.762,106.934
1738232988.921,-30.762,-38.086,-28.809,-14.160,-276.855
1738232988.925,-12.695,-42.969,-25.879,-32.715,-288.086
1738232988.929,-26.855,-45.410,-31.250,-64.941,-186.523
1738232988.943,-39.062,-41.016,-36.133,-66.406,-140.137
1738232988.947,-53.711,-37.109,-38.574,-53.711,-223.145
1738232988.951,-20.508,-35.645,-39.551,-44.922,-144.043
1738232988.955,-2.930,-32.715,-40.527,-48.828,54.199
1738232988.959,-24.902,-32.715,-39.062,-50.293,-165.527
1738232988.963,-33.691,-38.086,-45.898,-30.273,-150.879
1738232988.967,-52.734,-38.574,-45.898,2.441,197.754
1738232988.970,-41.016,-34.180,-38.574,-15.137,683.105
1738232988.974,-20.020,-30.273,-43.945,-63.965,448.242
1738232988.978,-21.484,-29.785,-42.480,-79.102,-229.980
1738232988.982,-25.879,-35.156,-37.109,-48.828,-231.445
1738232988.986,-52.734,-40.527,-41.992,-12.207,-147.949
1738232988.973,-44.922,-42.480,-45.898,-46.387,-245.605
1738232988.977,-19.043,-42.480,-42.480,-56.641,-266.113
1738232988.981,-23.438,-41.016,-39.551,-34.668,-86.914
1738232988.985,-34.180,-40.039,-45.410,-43.457,-109.375
1738232988.989,-50.293,-41.992,-48.828,-38.574,-193.848
1738232988.993,-35.156,-40.527,-46.875,-28.809,17.578
1738232988.997,-15.137,-30.273,-39.062,-40.039,223.633
1738232989.000,-20.508,-22.949,-35.156,-52.246,27.344
1738232989.004,-41.504,-25.879,-41.504,-48.828,-187.012
1738232989.008,-62.988,-37.109,-38.574,-34.180,-184.570
1738232989.012,-52.734,-39.551,-31.738,-32.715,299.805
1738232989.016,-30.762,-29.297,-37.598,-47.852,395.020
1738232989.018,-21.973,-24.902,-37.598,-36.621,-43.945
1738232989.022,-34.668,-36.621,-32.227,-4.395,-113.281
1738232989.026,-59.082,-43.457,-32.227,-7.324,148.926
1738232989.030,-52.246,-34.180,-32.227,-47.363,-16.113
1738232989.034,-27.344,-26.855,-35.645,-71.777,-253.906
1738232989.038,-24.902,-35.156,-39.062,-63.477,23.926
1738232989.042,-41.504,-33.203,-32.715,-47.852,272.949
1738232989.045,-64.941,-27.344,-28.320,-30.762,-44.922
1738232989.049,-60.059,-30.762,-25.391,-27.344,-200.195
1738232989.053,-34.668,-26.855,-28.320,-45.410,-4.395
1738232989.057,-32.227,-22.461,-30.762,-52.246,97.168
1738232989.061,-35.645,-24.414,-24.414,-46.387,-189.941
1738232989.078,-43.457,-26.367,-22.461,-24.414,-221.680
1738232989.082,-42.480,-25.391,-29.297,-12.207,12.695
1738232989.086,-11.230,-21.484,-29.785,-36.621,-90.820
1738232989.090,-2.441,-18.066,-28.809,-34.668,-256.836
1738232989.094,-13.672,-21.484,-33.203,-33.203,-156.250
1738232989.098,-42.480,-24.414,-32.715,-39.062,111.328
1738232989.102,-72.754,-24.902,-29.297,-39.062,108.887
1738232989.105,-53.711,-21.484,-36.621,-42.969,-152.344
1738232989.109,-30.762,-21.484,-34.668,-25.879,-111.328
1738232989.113,-29.297,-21.973,-27.344,-26.855,270.996
1738232989.117,-46.387,-11.719,-30.762,-51.758,42.969
1738232989.121,-64.941,-9.277,-25.879,-53.223,-130.371
1738232989.124,-37.598,-10.254,-23.926,-43.457,138.184
1738232989.128,-12.207,-9.766,-23.926,-21.484,488.281
1738232989.132,-19.043,-13.184,-27.344,-28.320,186.523
1738232989.136,-17.090,-17.578,-34.180,-46.387,-271.973
1738232989.140,-21.484,-17.090,-33.203,-34.668,-121.582
1738232989.144,-17.090,-8.789,-36.133,-25.879,101.074
1738232989.148,6.348,-5.371,-37.109,-18.555,94.238
1738232989.151,19.531,-8.789,-36.133,-14.648,-198.242
1738232989.155,14.160,-9.766,-42.480,-22.949,-107.910
1738232989.159,-23.438,-11.719,-37.598,-4.395,327.148
1738232989.163,-36.133,-9.766,-32.227,-13.672,-20.996
1738232989.167,-18.555,-6.348,-31.250,-29.297,-239.746
1738232989.169,-13.184,-5.371,-31.250,-8.789,-112.305
1738232989.173,-20.996,-0.977,-34.668,-9.766,-178.711
1738232989.177,-33.691,-0.977,-35.156,-16.602,-174.805
1738232989.181,-14.648,-1.953,-37.109,-8.789,-61.035
1738232989.185,13.184,2.441,-36.133,-1.465,-60.059
1738232989.189,24.414,-2.441,-28.809,-4.883,-146.484
1738232989.193,15.625,-16.602,-25.391,-18.066,-74.707
1738232989.196,-11.230,-20.996,-27.832,8.301,-83.984
1738232989.200,-14.648,-31.250,-27.832,57.617,312.012
1738232989.204,1.465,-25.879,-28.320,36.621,416.992
1738232989.208,11.230,-14.648,-27.344,-15.625,-209.473
1738232989.212,13.672,-15.625,-31.738,-31.738,-195.312
1738232989.214,4.395,-20.996,-36.621,-24.414,91.309
1738232989.218,-9.766,-27.832,-31.250,-25.879,-75.195
1738232989.222,0.488,-29.785,-33.691,-35.645,-221.191
1738232989.226,5.859,-32.715,-31.250,-40.039,-145.996
1738232989.230,-4.395,-28.809,-28.320,-27.344,-33.203
1738232989.234,-20.508,-25.391,-25.879,8.301,72.266
1738232989.238,-27.832,-27.832,-27.832,13.672,99.609
1738232989.241,-2.441,-32.715,-32.227,4.883,92.285
1738232989.245,10.254,-42.969,-32.715,1.465,442.383
1738232989.249,-8.789,-40.039,-31.250,-13.672,83.496
1738232989.253,-26.367,-27.344,-24.902,-14.648,-268.066
1738232989.257,-16.113,-29.297,-27.832,-9.766,-28.809
1738232989.260,6.348,-34.180,-36.621,-2.441,-104.004
1738232989.264,5.859,-32.227,-29.785,-7.324,-282.227
1738232989.268,-21.484,-32.227,-25.391,-2.441,-251.953
1738232989.272,-41.504,-28.320,-28.320,16.602,-54.199
1738232989.276,-35.156,-18.555,-30.273,-12.207,-68.848
1738232989.280,-10.742,-19.531,-30.762,-57.617,-60.547
1738232989.284,-1.953,-20.508,-27.832,-55.664,35.156
1738232989.287,2.441,-20.020,-18.066,-26.367,387.695
1738232989.291,-21.484,-21.484,-13.672,-19.531,576.660
1738232989.295,-48.828,-17.578,-21.484,-16.602,-32.715
1738232989.299,-26.367,-20.020,-21.484,-19.531,-246.582
1738232989.303,4.395,-15.625,-17.578,-25.391,-116.211
1738232989.303,2.441,-13.672,-20.020,-24.414,-154.297
1738232989.307,-32.227,-24.414,-20.020,-30.762,-253.906
1738232989.311,-43.457,-27.344,-17.578,-19.043,-116.699
1738232989.315,-25.391,-18.555,-26.367,-15.137,17.090
1738232989.319,-7.324,-17.090,-30.762,-17.090,-177.734
1738232989.323,14.648,-21.973,-17.090,9.277,-208.008
1738232989.327,-13.184,-37.598,-8.301,23.438,28.320
1738232989.330,-67.383,-49.805,-22.949,38.574,578.125
1738232989.334,-47.852,-49.316,-34.180,17.578,396.484
1738232989.338,-10.742,-54.199,-25.879,-71.289,-201.660
1738232989.342,-7.324,-31.738,-20.508,-93.262,-43.457
1738232989.346,-33.203,-14.160,-23.926,-64.453,-22.461
1738232989.394,-44.434,-15.137,-29.785,-60.059,-201.660
1738232989.398,-28.809,-15.137,-27.832,-44.434,-197.266
1738232989.402,-10.742,-16.113,-20.508,-39.062,-140.625
1738232989.406,1.953,-18.555,-24.902,-34.180,-177.734
1738232989.399,-3.418,-21.484,-32.227,-23.926,-81.543
1738232989.403,-8.301,-22.461,-40.039,-11.230,66.895
1738232989.407,-24.414,-17.090,-54.199,-10.742,22.949
1738232989.411,0.488,-21.973,-42.480,12.207,-127.930
1738232989.415,22.461,-42.969,-46.875,23.926,-181.641
1738232989.419,10.742,-24.902,-37.109,0.000,-5.859
1738232989.423,-8.301,-17.090,-25.879,-31.738,177.246
1738232989.426,29.785,-40.039,-35.645,-49.805,-46.387
1738232989.430,1.465,-54.199,-43.945,-33.203,-256.348
1738232989.434,-80.566,-61.035,-46.875,-16.602,20.508
1738232989.438,-54.199,-65.430,-43.945,-52.734,278.809
1738232989.442,-40.039,-36.133,-48.828,-62.012,-115.723
1738232989.441,-17.090,-18.066,-57.617,-40.039,-268.066
1738232989.445,8.301,-65.430,-55.664,-11.230,89.844
1738232989.449,-27.344,-78.613,-56.152,6.348,271.973
1738232989.453,-44.922,-49.316,-63.477,9.766,63.965
1738232989.457,-37.109,-18.555,-66.406,-12.207,-123.047
1738232989.461,-19.043,-12.207,-62.012,-9.766,196.777
1738232989.465,-20.996,-6.836,-59.082,6.836,799.316
1738232989.468,-10.254,2.930,-65.430,4.883,659.180
1738232989.472,12.695,-2.930,-72.266,-26.855,25.391
1738232989.476,4.395,-22.461,-71.777,-24.414,-120.605
1738232989.480,-10.254,-25.391,-75.684,-9.766,-194.336
1738232989.484,-41.992,-34.668,-78.125,-32.715,-223.633
1738232989.513,-43.457,-60.547,-76.172,-27.344,-40.527
1738232989.517,-9.766,-62.988,-73.242,-35.645,-72.266
1738232989.521,16.113,-62.500,-69.824,-34.668,-188.965
1738232989.525,25.879,-72.754,-70.312,-19.531,-267.578
1738232989.529,15.625,-93.750,-64.941,-3.418,-21.484
1738232989.533,8.301,-103.516,-63.477,13.672,595.703
1738232989.537,29.785,-91.797,-66.406,20.020,414.062
1738232989.540,57.129,-93.262,-64.453,17.090,-27.344
1738232989.544,55.664,-104.004,-56.641,30.273,64.941
1738232989.548,39.062,-95.215,-57.617,43.945,-51.758
1738232989.552,25.879,-84.473,-60.547,31.738,-206.055
1738232989.556,62.500,-77.637,-65.430,29.785,-237.305
1738232989.558,91.797,-72.754,-75.684,-1.953,-41.504
1738232989.562,68.848,-76.660,-78.125,-13.672,154.297
1738232989.566,45.410,-70.312,-78.613,7.324,-164.062
1738232989.570,32.227,-70.801,-72.266,8.789,-229.980
1738232989.574,58.594,-67.871,-68.359,26.855,45.898
1738232989.578,75.195,-61.523,-70.312,43.457,108.887
1738232989.582,64.453,-62.500,-63.477,36.133,-45.410
1738232989.585,40.039,-64.941,-54.688,22.461,-85.938
1738232989.589,21.484,-67.871,-51.758,-7.324,89.844
1738232989.593,33.203,-62.988,-47.852,-33.691,-88.379
1738232989.597,42.969,-58.594,-41.504,-25.391,-298.340
1738232989.601,41.504,-60.059,-36.621,-2.441,-233.887
1738232989.588,24.902,-65.918,-37.598,-1.465,446.289
1738232989.592,1.465,-68.848,-35.645,-28.809,673.828
1738232989.596,3.906,-65.430,-27.344,-43.457,-16.602
1738232989.600,19.531,-60.547,-20.996,-29.785,-270.996
1738232989.604,4.883,-59.082,-18.555,-17.090,-214.844
1738232989.608,-19.043,-65.918,-24.414,-9.277,-129.883
1738232989.612,-49.805,-69.824,-30.762,-25.879,-18.066
1738232989.615,-46.387,-60.059,-26.855,-47.852,-17.090
1738232989.619,-36.621,-58.594,-27.344,-52.734,-138.672
1738232989.623,-34.668,-68.848,-27.832,-45.898,-227.539
1738232989.627,-29.297,-72.266,-23.438,-39.062,-139.160
1738232989.631,-39.551,-72.266,-18.066,-48.340,59.082
1738232989.633,-40.527,-75.195,-16.602,-66.406,464.844
1738232989.637,-33.203,-75.684,-16.602,-50.781,78.125
1738232989.641,-24.902,-66.895,-11.230,-28.809,-287.598
1738232989.645,-21.484,-62.012,-7.812,-32.227,-149.902
1738232989.649,-46.875,-62.012,-12.207,-26.367,-199.707
1738232989.653,-49.805,-57.129,-6.348,-26.367,-96.191
1738232989.657,-24.414,-57.129,-0.488,-29.297,8.301
1738232989.660,-11.230,-56.152,-2.441,-22.949,249.023
1738232989.664,-24.414,-55.176,-2.930,-30.762,128.418
1738232989.668,-36.133,-54.688,2.441,-30.762,-261.719
1738232989.672,-41.992,-49.805,5.371,-21.973,-243.652
1738232989.676,-38.086,-46.875,4.395,-10.254,-144.531
1738232989.694,-31.250,-46.875,1.465,-4.883,-47.363
1738232989.698,-37.598,-51.758,-0.488,-23.926,-151.855
1738232989.702,-56.152,-51.758,-8.301,-40.039,-146.973
1738232989.706,-51.758,-47.363,-5.371,-34.180,304.199
1738232989.710,-28.320,-43.945,-1.953,-34.668,89.355
1738232989.714,-18.555,-48.340,-2.441,-34.668,-164.062
1738232989.718,-22.949,-53.711,-3.906,-20.996,74.219
1738232989.721,-31.738,-53.711,-8.789,-15.625,325.684
1738232989.725,-44.434,-54.199,-16.602,-17.578,-34.180
1738232989.729,-40.527,-48.828,-19.043,-38.086,-277.344
1738232989.733,-26.367,-48.828,-10.254,-43.457,-151.367
1738232989.737,-32.227,-47.363,-14.648,-30.273,-192.383
1738232989.723,-48.828,-42.480,-19.531,-29.785,-266.113
1738232989.727,-29.785,-40.039,-17.578,1.465,-258.301
1738232989.731,0.977,-34.668,-3.418,13.672,-19.531
1738232989.735,-29.297,-35.645,2.930,-58.594,22.461
1738232989.739,-27.344,-34.180,-6.836,-67.871,-206.055
1738232989.743,-29.297,-30.762,-8.301,-16.113,-112.305
1738232989.747,-69.336,-34.668,-2.441,-42.969,318.359
1738232989.750,-54.199,-36.133,-10.254,-63.965,56.152
1738232989.754,-36.133,-35.156,-11.230,-24.902,-288.574
1738232989.758,-41.016,-37.109,-7.812,-19.043,-164.062
1738232989.762,-39.062,-34.668,-14.160,-51.270,281.738
1738232989.766,-59.570,-34.668,-16.602,-67.383,240.234
1738232989.768,-67.871,-37.109,-17.578,-60.547,-123.535
1738232989.772,-49.805,-35.645,-18.066,-40.039,-44.922
1738232989.776,-29.297,-28.809,-8.789,-12.695,118.164
1738232989.780,-33.203,-23.438,-11.719,-21.484,-131.836
1738232989.784,-44.434,-22.461,-10.254,-37.109,-283.691
1738232989.788,-20.020,-19.043,-4.395,-35.645,-110.840
1738232989.792,-29.785,-22.949,-13.184,-37.598,77.637
1738232989.795,-46.875,-26.855,-16.113,-33.691,50.781
1738232989.799,-37.109,-21.484,-13.672,-29.785,-192.871
1738232989.803,-57.617,-22.461,-15.137,-33.203,-55.176
1738232989.807,-53.223,-32.227,-10.742,-23.926,307.617
1738232989.811,-23.926,-26.855,-11.230,-30.273,-85.449
1738232989.828,-34.668,-18.066,-23.438,-45.898,-286.133
1738232989.832,-55.176,-24.902,-27.344,-42.969,-91.309
1738232989.836,-75.195,-31.738,-25.391,-30.762,-106.934
1738232989.840,-84.473,-24.902,-29.297,-35.645,-251.953
1738232989.844,-71.777,-20.996,-27.344,-33.203,-229.980
1738232989.848,-51.758,-29.297,-20.996,-16.113,196.289
1738232989.852,-40.039,-29.785,-19.531,-3.418,196.289
1738232989.855,-61.523,-15.137,-29.785,-24.414,-122.559
1738232989.859,-74.707,-5.371,-40.039,-48.340,-20.020
1738232989.863,-41.504,-10.742,-37.109,-42.969,383.789
1738232989.867,-29.297,-9.277,-35.156,-36.621,270.996
1738232989.871,-24.902,-4.395,-33.691,-23.926,-168.945
1738232989.873,-17.090,-9.766,-40.039,-4.883,52.246
1738232989.877,-19.043,-9.766,-41.992,-19.043,280.273
1738232989.881,-11.719,-7.812,-34.668,-39.551,-91.797
1738232989.885,2.441,-8.301,-34.180,-35.156,-282.715
1738232989.889,3.418,-10.742,-31.738,-23.926,-166.504
1738232989.893,-18.066,-9.277,-29.785,-12.695,20.508
1738232989.897,-24.414,-3.906,-30.762,-18.066,91.309
1738232989.900,-9.766,1.465,-30.273,-43.457,-154.297
1738232989.904,-6.348,-11.230,-27.344,-35.156,-82.520
1738232989.908,-0.488,-21.973,-29.297,-18.555,292.480
1738232989.912,-16.602,-0.488,-24.414,-22.461,-18.066
1738232989.916,-38.086,1.953,-20.996,-24.414,-206.055
1738232989.918,-33.691,-8.789,-19.531,-25.879,-56.152
1738232989.922,-26.367,-4.883,-22.461,-31.738,-59.082
1738232989.926,-19.043,-3.418,-24.414,-35.645,-236.816
1738232989.930,-26.855,-10.742,-22.461,-19.043,-223.633
1738232989.934,-40.039,-12.207,-22.949,-11.230,31.250
1738232989.938,-29.785,-15.137,-16.602,-16.602,33.691
1738232989.942,-15.137,-16.113,-12.207,-7.812,-112.305
1738232989.945,-17.090,-9.277,-17.578,-2.441,-162.598
1738232989.949,-20.508,-10.254,-18.555,-5.859,273.438
1738232989.953,-26.367,-9.766,-24.414,-32.227,228.027
1738232989.957,-18.066,-7.812,-30.762,-62.012,-251.953
1738232989.961,-4.395,-7.324,-26.855,-52.246,-166.504
1738232989.964,-8.789,-13.184,-22.949,-28.320,28.320
1738232989.968,-19.043,-18.066,-20.996,-32.715,17.090
1738232989.972,-29.297,-15.137,-25.391,-32.227,-188.965
1738232989.976,-21.484,-15.137,-30.273,-7.324,-143.555
1738232989.980,-5.371,-13.184,-24.414,-4.395,264.648
1738232989.984,-12.695,-20.996,-17.090,-19.043,159.180
1738232989.988,-34.668,-26.367,-20.996,-22.461,-53.711
1738232989.991,-55.176,-22.461,-24.414,-27.832,68.359
1738232989.995,-43.945,-20.020,-21.973,-28.809,324.707
1738232989.999,-35.156,-11.719,-22.949,-31.738,-75.684
1738232990.003,-25.879,-8.301,-17.090,-31.738,-305.176
1738232990.007,-28.809,-16.602,-15.625,-28.320,-103.516
1738232990.009,-51.270,-20.508,-18.066,-36.133,-154.785
1738232990.013,-50.781,-18.066,-20.020,-50.781,-266.602
1738232990.017,-30.762,-13.672,-27.344,-42.480,-259.766
1738232990.021,-19.043,-12.695,-29.297,-26.367,-37.109
1738232990.025,-22.461,-13.184,-20.996,-31.738,-76.660
1738232990.029,-30.762,-15.137,-20.996,-28.809,-137.207
1738232990.033,-31.738,-16.602,-32.715,-34.180,-46.875
1738232990.036,-12.207,-12.695,-31.738,-28.320,287.598
1738232990.040,0.000,-11.230,-19.531,-20.996,393.066
1738232990.044,-13.672,-12.695,-16.113,-21.484,-130.371
1738232990.048,-30.762,-10.254,-24.902,-32.227,-213.379
1738232990.052,-19.043,-9.277,-29.297,-42.969,-57.129
1738232990.053,-13.184,-10.742,-27.832,-44.922,-89.355
1738232990.057,-31.738,-20.508,-24.902,-35.156,-211.426
1738232990.061,-39.062,-22.461,-25.879,-26.367,-96.191
1738232990.065,-58.105,-27.832,-29.297,-48.340,176.270
1738232990.069,-57.129,-35.645,-35.156,-51.270,-53.711
1738232990.073,-27.832,-21.973,-41.504,-37.598,-189.453
1738232990.077,-25.879,-11.719,-29.785,-29.785,68.848
1738232990.080,-34.180,-24.414,-23.438,-25.391,635.254
1738232990.084,-46.387,-30.762,-38.086,-42.480,318.848
1738232990.088,-45.898,-32.715,-40.527,-59.082,-309.082
1738232990.092,-36.133,-41.016,-35.645,-59.570,-205.566
1738232990.096,-32.227,-30.762,-29.785,-52.246,-174.316
1738232990.131,-27.832,-24.902,-27.344,-39.551,-299.805
1738232990.135,-37.598,-33.203,-50.781,-41.504,-254.395
1738232990.139,-41.504,-24.902,-58.105,-30.273,-42.969
1738232990.143,-27.832,-23.438,-25.391,-40.039,-94.727
1738232990.147,-17.578,-22.949,-12.695,-69.824,-243.164
1738232990.151,-12.207,-27.344,-28.809,-51.758,-23.438
1738232990.155,-18.555,-33.203,-36.133,-41.504,418.945
1738232990.158,-12.207,-28.809,-29.785,-38.086,192.383
1738232990.162,-8.789,-30.762,-36.621,-34.668,-139.160
1738232990.166,-18.066,-29.297,-43.457,-43.945,-55.176
1738232990.170,7.324,-16.113,-66.406,-19.043,172.852
1738232990.174,0.488,-7.812,-69.336,-2.441,113.770
1738232990.158,-54.688,-23.438,-41.992,-23.926,-13.672
1738232990.162,-66.895,-40.527,-24.902,-31.738,-98.145
1738232990.166,-66.406,-53.711,-50.293,-49.805,-12.207
1738232990.170,-85.938,-61.035,-77.637,-62.988,-123.047
1738232990.174,-93.262,-55.664,-52.246,-43.457,-291.504
1738232990.178,-102.051,-58.105,-42.969,-103.027,-20.508
1738232990.182,-106.445,-62.012,-63.965,-157.715,167.480
1738232990.185,-110.840,-56.641,-83.008,-149.414,-117.188
1738232990.189,-100.098,-55.664,-95.215,-122.559,-270.508
1738232990.193,-108.887,-58.105,-106.445,-96.680,-129.883
1738232990.197,-155.273,-51.758,-103.027,-117.676,-39.551
1738232990.201,-149.902,-33.203,-93.262,-107.422,-24.902
1738232990.218,-131.836,-29.785,-108.887,-83.984,-217.773
1738232990.222,-112.305,-41.016,-103.027,-89.355,-86.426
1738232990.226,-109.863,-27.832,-66.406,-103.516,548.828
1738232990.230,-127.930,-32.715,-72.754,-80.078,563.477
1738232990.234,-123.047,-52.734,-80.078,-74.707,-33.691
1738232990.238,-85.449,-63.965,-72.266,-103.516,4.883
1738232990.242,-55.176,-42.969,-89.355,-70.312,45.898
1738232990.245,-50.781,-7.812,-112.305,-36.133,-231.934
1738232990.249,-58.594,-16.602,-70.312,-24.902,-235.840
1738232990.253,-41.504,-27.832,-33.203,-13.672,202.148
1738232990.257,-34.180,-21.973,-69.824,-31.250,93.262
1738232990.261,-35.156,-20.508,-71.289,-28.809,-306.641
1738232990.250,-21.973,-22.949,-29.785,-1.465,-128.418
1738232990.254,-23.438,-25.879,5.371,20.020,498.047
1738232990.258,-27.832,-5.859,21.973,5.859,380.371
1738232990.262,-18.066,12.695,41.992,-11.719,-265.625
1738232990.266,-1.953,16.113,86.914,-6.348,-284.180
1738232990.270,10.742,9.277,137.207,-14.648,-140.625
1738232990.274,10.254,-4.883,152.344,6.836,-159.668
1738232990.277,9.766,8.789,162.598,14.160,-263.184
1738232990.281,23.926,33.691,220.703,-16.602,-228.516
1738232990.285,21.484,35.645,284.668,-9.277,-163.574
1738232990.289,22.949,33.691,352.539,4.883,-268.066
1738232990.293,21.973,50.781,416.504,0.000,-350.098
1738232990.310,23.926,58.594,467.773,-3.906,-4.883
1738232990.314,27.344,68.848,579.102,3.906,276.367
1738232990.318,26.367,95.215,729.492,36.133,-138.672
1738232990.322,27.832,104.980,781.250,90.820,-174.316
1738232990.326,10.254,94.727,777.344,59.570,131.836
1738232990.330,0.977,97.656,847.168,-0.977,99.121
1738232990.334,20.508,118.164,908.203,-40.527,-50.293
1738232990.337,42.969,117.676,921.387,-43.945,-200.195
1738232990.341,53.711,104.492,929.688,-14.160,198.730
1738232990.345,17.578,117.676,912.598,-8.789,388.184
1738232990.349,-13.672,125.488,894.531,5.859,-170.898
1738232990.353,29.785,109.375,922.363,42.480,-228.027
1738232990.338,30.273,85.449,917.480,5.371,20.020
1738232990.342,2.441,87.402,900.391,-17.090,-104.004
1738232990.346,10.254,104.492,956.055,-10.254,-207.520
1738232990.350,8.301,117.188,973.633,-36.133,-104.980
1738232990.354,8.301,121.094,966.309,-47.852,-7.324
1738232990.358,16.602,133.301,969.727,-25.879,75.195
1738232990.362,20.508,131.836,969.238,-10.742,39.551
1738232990.365,28.809,144.531,968.750,-18.555,79.102
1738232990.369,23.926,167.969,969.238,-41.992,160.645
1738232990.373,24.414,174.805,969.238,-48.828,-51.270
1738232990.377,33.691,193.359,969.238,-24.414,-223.633
1738232990.381,32.715,182.617,969.238,-20.020,-46.387
1738232990.414,12.695,137.695,969.238,-7.812,550.781
1738232990.418,-19.531,139.648,969.238,-29.785,391.113
1738232990.422,-20.508,159.180,969.238,-45.898,-143.066
1738232990.426,-8.789,160.645,969.238,-33.203,-103.027
1738232990.429,-47.852,167.969,969.238,-30.273,113.281
1738232990.433,-21.973,146.484,969.238,-42.969,-277.832
1738232990.437,-24.902,129.883,969.238,-38.574,-301.758
1738232990.441,-41.016,149.414,969.238,-29.785,-132.812
1738232990.445,-62.500,146.973,969.238,-23.438,-200.195
1738232990.449,-57.617,137.695,969.238,-28.320,-102.051
1738232990.453,-30.762,133.301,969.238,-21.973,20.020
1738232990.456,-32.227,120.605,969.238,2.441,30.762
1738232990.460,-52.246,120.605,969.238,-12.207,-154.785
1738232990.464,-63.965,137.695,968.750,-42.969,-247.559
1738232990.468,-51.270,172.363,968.750,-19.043,-77.637
1738232990.472,-28.320,194.824,969.238,-3.906,-21.484
1738232990.474,-24.902,187.988,969.238,-22.949,-181.152
1738232990.478,-29.297,192.871,969.238,-37.598,-283.691
1738232990.482,-43.945,186.523,969.238,-34.180,76.660
1738232990.486,-69.336,159.668,969.238,-29.297,573.242
1738232990.490,-59.570,166.016,969.238,-41.016,105.957
1738232990.494,-29.297,169.922,969.238,-27.344,-90.332
1738232990.498,-18.555,168.945,969.238,-12.207,389.160
1738232990.501,-43.457,174.316,969.238,-12.695,237.305
1738232990.505,-58.105,182.617,969.238,-30.273,-207.520
1738232990.509,-44.434,192.871,968.750,-49.316,-201.172
1738232990.513,-34.668,174.316,969.238,-46.387,-138.184
1738232990.517,-32.227,159.668,968.750,-18.555,-201.660
1738232990.520,-59.570,146.484,969.238,-22.949,-251.465
1738232990.524,-79.102,147.461,969.238,-41.016,-115.234
1738232990.528,-52.734,159.668,969.238,-22.461,333.008
1738232990.532,-39.551,162.598,969.238,-25.391,72.754
1738232990.536,-39.551,176.758,968.750,-29.297,-331.543
1738232990.540,-44.922,175.781,969.238,-29.297,-111.816
1738232990.544,-55.176,157.715,969.238,-35.156,219.238
1738232990.547,-50.293,142.090,969.238,-52.734,-121.094
1738232990.551,-37.598,133.301,969.727,-48.340,-412.598
1738232990.555,-37.109,127.441,967.285,-30.762,-191.895
1738232990.559,-49.316,125.000,972.168,-39.062,-71.289
1738232990.563,-54.199,121.582,958.008,-44.922,-250.000
1738232990.565,-37.109,112.305,892.090,-38.086,-256.348
1738232990.569,-38.574,95.703,850.098,-38.574,-186.035
1738232990.573,-46.875,89.355,816.406,-35.156,-184.570
1738232990.577,-27.832,92.285,769.531,-13.184,-178.711
1738232990.581,-36.621,95.703,740.234,-21.973,-144.043
1738232990.585,-46.875,85.449,689.941,-34.180,314.941
1738232990.589,-33.691,82.520,610.352,-44.434,387.207
1738232990.592,-17.578,96.191,555.664,-41.992,-223.633
1738232990.596,-26.855,81.543,516.113,-39.551,-239.746
1738232990.600,-48.828,64.941,478.516,-40.527,75.195
1738232990.604,-44.922,55.176,453.125,-40.039,-125.977
1738232990.608,-23.926,43.945,458.008,-31.250,-300.293
1738232990.624,-28.320,42.480,453.125,-14.160,-124.023
1738232990.628,-47.363,31.250,422.852,-22.949,-43.457
1738232990.632,-52.246,16.113,406.250,-27.832,-104.492
1738232990.636,-58.105,18.066,400.391,-38.574,-224.609
1738232990.640,-30.762,8.301,395.508,-50.293,-166.016
1738232990.644,-26.367,11.230,376.953,-40.527,256.836
1738232990.648,-44.922,26.367,359.863,-35.645,84.961
1738232990.651,-48.828,21.484,359.375,-34.668,-146.973
1738232990.655,-45.898,18.555,350.098,-30.273,54.199
1738232990.659,-30.273,11.230,344.727,-23.926,386.719
1738232990.663,-24.414,12.695,339.355,-26.367,-20.996
1738232990.667,-26.855,6.348,332.520,-27.832,-314.941
1738232990.669,-35.645,-16.113,326.172,-33.691,-96.680
1738232990.673,-36.133,-17.578,310.547,-29.785,-108.887
1738232990.677,-24.902,-14.648,307.617,-35.645,-244.629
1738232990.681,-22.461,-20.508,289.062,-38.574,-229.004
1738232990.685,-13.184,-2.930,262.695,-10.742,-106.934
1738232990.689,-21.484,10.742,250.000,-4.883,113.281
1738232990.693,-48.340,2.930,227.539,-24.414,180.176
1738232990.696,-49.805,-5.371,202.148,-19.043,-66.895
1738232990.700,-40.039,-15.625,175.781,5.371,168.945
1738232990.704,-34.180,-14.648,153.809,-1.953,265.137
1738232990.708,-33.691,-8.789,128.906,-46.875,-164.062
1738232990.712,-33.691,-19.043,96.191,-64.941,-102.539
1738232990.728,-21.484,-27.832,64.453,-44.922,407.227
1738232990.732,-17.090,-26.367,30.762,-51.758,18.066
1738232990.736,-14.160,-22.949,13.184,-38.574,-367.188
1738232990.740,-13.672,-30.273,3.418,-29.785,-229.980
1738232990.744,-18.555,-31.738,-13.672,-38.086,-130.371
1738232990.748,-25.391,-31.250,-19.531,-33.691,42.969
1738232990.752,-21.973,-29.297,-21.973,-21.484,-29.785
1738232990.755,-22.949,-24.414,-19.043,-18.555,-106.934
1738232990.759,-28.320,-32.715,-8.789,-23.926,110.352
1738232990.763,-29.297,-31.250,-15.625,-17.578,-57.617
1738232990.767,-32.715,-24.902,-31.738,-0.977,-264.648
1738232990.771,-24.902,-29.785,-35.156,-0.488,13.184
1738232990.758,-16.113,-26.367,-41.504,-22.949,430.664
1738232990.762,-21.484,-11.719,-69.824,-32.227,-67.383
1738232990.766,-29.297,-14.648,-65.918,-12.207,-248.047
1738232990.770,-20.020,-21.484,-52.246,9.277,-50.293
1738232990.774,-12.695,-19.043,-53.711,-10.254,-173.828
1738232990.778,-15.137,-20.996,-53.223,-22.461,-176.270
1738232990.782,-18.555,-27.344,-46.875,0.000,48.828
1738232990.785,-19.531,-31.250,-32.227,-7.324,179.199
1738232990.789,-8.789,-32.715,-41.504,-33.691,-6.836
1738232990.793,-10.742,-29.785,-45.898,-36.621,-227.051
1738232990.797,-11.719,-30.762,-9.766,-33.203,-273.926
1738232990.801,-14.160,-39.062,8.789,-21.484,236.328
1738232990.804,-20.020,-41.504,-8.301,-10.742,382.324
1738232990.808,-20.020,-39.551,-20.996,-18.066,-112.305
1738232990.812,-16.113,-43.945,-24.414,-38.086,-102.051
1738232990.816,-13.672,-37.598,-36.621,-30.273,296.387
1738232990.820,-32.715,-34.180,-36.621,-34.668,51.270
1738232990.824,-39.551,-42.480,-25.879,-24.414,-195.801
1738232990.828,-29.785,-43.457,-23.926,9.766,50.781
1738232990.831,-32.227,-42.480,-16.602,-17.578,296.387
1738232990.835,-31.738,-51.758,-9.277,-56.152,-141.602
1738232990.839,-25.391,-62.500,1.465,-35.645,-391.113
1738232990.843,-26.855,-49.805,7.812,-12.207,-139.160
1738232990.847,-26.855,-36.621,-1.953,-19.043,-88.379
1738232990.880,-29.785,-43.457,0.977,-34.180,-245.117
1738232990.884,-39.551,-48.340,-7.812,-47.363,-298.340
1738232990.888,-42.480,-44.922,-20.996,-37.109,-137.207
1738232990.892,-33.691,-32.715,-6.836,-14.160,-121.582
1738232990.896,-29.297,-26.367,5.371,5.859,-61.035
1738232990.900,-9.766,-37.109,14.160,20.996,82.520
1738232990.904,-21.973,-41.992,11.230,-31.738,405.762
1738232990.907,-41.016,-36.133,-18.555,-80.078,288.086
1738232990.911,-40.039,-30.762,-39.551,-65.918,-198.242
1738232990.915,-47.852,-31.738,-22.949,-44.434,-128.906
1738232990.919,-54.199,-36.133,-3.418,-41.504,159.180
1738232990.923,-81.543,-37.109,-11.230,-73.242,-71.777
1738232990.926,-73.242,-46.875,-12.695,-61.523,-217.773
1738232990.930,-41.992,-40.039,-15.137,-18.066,-78.613
1738232990.934,-58.105,-31.738,-35.156,-46.387,-31.738
1738232990.938,-81.055,-34.180,-45.898,-76.660,-189.453
1738232990.942,-113.770,-35.645,-44.922,-88.867,-326.660
1738232990.946,-98.633,-31.738,-55.664,-98.633,-58.594
1738232990.950,-73.730,-13.672,-59.570,-123.535,216.309
1738232990.953,-64.453,-1.953,-49.316,-134.766,24.902
1738232990.957,-79.102,4.395,-57.129,-124.512,-184.082
1738232990.961,-83.984,19.043,-68.848,-121.582,-202.637
1738232990.965,-14.160,24.902,-77.637,-100.586,-147.461
1738232990.969,-54.199,20.508,-100.098,-123.535,-186.035
1738232990.969,-146.973,21.973,-105.469,-119.141,-231.445
1738232990.973,-84.473,11.719,-94.727,-83.496,32.227
1738232990.977,-23.926,4.395,-97.168,-94.727,341.309
1738232990.981,-24.414,17.090,-103.027,-78.125,-111.816
1738232990.985,-19.531,24.414,-102.539,-24.902,-247.559
1738232990.989,-24.414,18.066,-95.703,-15.625,377.930
1738232990.993,-24.902,12.207,-97.656,-33.691,361.816
1738232990.996,-0.977,12.695,-95.215,-30.273,-215.332
1738232991.000,32.715,20.020,-83.984,-7.812,-241.699
1738232991.004,75.195,22.461,-72.754,16.602,116.699
1738232991.008,88.379,24.902,-58.105,50.293,61.035
1738232991.012,48.828,22.949,-38.574,63.477,-168.945
1738232990.999,12.695,21.484,-19.043,47.363,-146.484
1738232991.003,30.273,18.066,-17.090,51.758,328.613
1738232991.007,45.410,20.508,-12.207,61.035,632.324
1738232991.011,41.992,31.250,27.832,68.359,-3.906
1738232991.015,49.316,31.738,57.617,70.801,-210.938
1738232991.019,47.363,26.367,66.406,41.992,423.828
1738232991.023,41.992,30.762,57.129,22.461,180.664
1738232991.026,44.434,27.344,24.902,42.969,-358.398
1738232991.030,42.969,14.160,-9.277,58.594,-164.062
1738232991.034,34.668,9.277,-41.016,33.203,12.207
1738232991.038,21.484,13.184,-70.801,10.254,-237.305
1738232991.042,18.066,13.672,-91.797,9.766,-366.211
1738232991.046,17.578,3.418,-116.211,12.207,-57.129
1738232991.050,15.625,-8.789,-129.883,12.695,494.141
1738232991.054,12.207,-15.137,-135.254,13.184,165.039
1738232991.058,17.090,-3.418,-149.902,31.738,-299.805
1738232991.062,21.973,-1.465,-149.414,23.926,-240.723
1738232991.066,8.789,-8.789,-148.926,-3.418,-215.332
1738232991.070,-7.324,-19.043,-149.902,-12.207,-134.766
1738232991.073,1.953,-27.832,-153.809,7.324,-122.559
1738232991.077,24.902,-15.137,-178.223,18.066,159.180
1738232991.081,12.207,-9.766,-167.480,-11.719,90.820
1738232991.085,1.465,-19.531,-129.395,-9.277,-333.008
1738232991.089,0.000,-24.414,-118.652,24.414,-212.402
1738232991.090,-5.859,-27.832,-130.371,13.672,144.531
1738232991.094,6.348,-17.578,-122.559,-0.977,-82.031
1738232991.098,1.465,-23.926,-104.980,6.836,-327.148
1738232991.102,-11.719,-32.715,-129.395,9.277,-170.410
1738232991.106,-8.301,-25.879,-127.441,24.414,2.441
1738232991.110,-7.812,-26.855,-84.473,3.418,9.277
1738232991.114,-2.930,-31.738,-82.031,-37.598,-125.488
1738232991.117,3.906,-24.414,-85.938,-17.578,-147.949
1738232991.121,8.301,-33.203,-76.660,11.719,325.684
1738232991.125,6.836,-34.668,-51.270,-7.324,166.504
1738232991.129,4.883,-13.672,-33.691,21.973,-222.656
1738232991.133,-4.883,-16.602,-74.219,50.781,-142.578
1738232991.163,-15.625,-23.438,-85.938,-27.832,-229.004
1738232991.167,-32.715,-31.250,-49.805,-71.777,-330.078
1738232991.171,-35.156,-42.969,-61.035,-14.648,-230.469
1738232991.175,-15.625,-42.969,-75.195,16.602,-85.449
1738232991.179,-16.602,-24.902,-70.312,-52.734,-113.770
1738232991.183,-31.738,-22.949,-79.590,-61.523,-98.633
1738232991.187,-40.039,-37.109,-102.051,-30.762,-158.203
1738232991.190,-29.785,-39.551,-115.234,-27.832,260.742
1738232991.194,-27.832,-39.551,-137.695,-21.973,500.977
1738232991.198,-44.434,-45.410,-162.109,-2.930,-82.031
1738232991.202,-47.852,-48.340,-157.715,-24.902,-260.742
1738232991.206,-47.852,-37.109,-162.598,-85.938,-125.488
1738232991.196,-48.828,-37.109,-175.293,-70.312,-86.914
1738232991.200,-40.039,-47.852,-186.035,-22.461,-95.703
1738232991.204,-35.645,-44.434,-211.914,-21.973,-61.035
1738232991.208,-40.039,-34.668,-219.238,-57.129,-24.414
1738232991.212,-57.617,-41.016,-192.383,-92.285,-201.172
1738232991.216,-60.547,-42.480,-178.223,-83.008,-202.148
1738232991.220,-54.199,-41.504,-201.660,-58.105,86.426
1738232991.223,-46.875,-27.832,-218.262,-29.785,247.070
1738232991.227,-37.598,-18.555,-199.219,-10.254,2.441
1738232991.231,-63.477,-33.203,-163.086,-65.918,-312.012
1738232991.235,-67.871,-38.086,-131.348,-90.332,-146.973
1738232991.239,-56.641,-46.875,-120.117,-68.359,262.207
1738232991.224,-53.711,-45.410,-109.375,-69.336,-45.410
1738232991.228,-42.969,-31.250,-88.867,-52.246,-298.340
1738232991.232,-43.457,-25.879,-74.219,-37.598,-63.965
1738232991.236,-40.527,-26.367,-66.406,-53.223,-69.336
1738232991.240,-41.504,-27.832,-46.387,-31.250,-220.215
1738232991.244,-44.922,-33.691,-33.691,-29.297,-80.078
1738232991.248,-44.434,-31.738,-23.438,-79.102,179.199
1738232991.251,-56.641,-20.508,-6.348,-89.844,-21.973
1738232991.255,-49.316,-23.438,0.000,-37.598,-355.957
1738232991.259,-43.457,-31.250,-0.488,2.930,-200.195
1738232991.263,-39.062,-39.551,8.789,-12.207,329.590
1738232991.267,-30.273,-40.527,10.742,-68.359,743.164
1738232991.284,-42.969,-40.039,17.090,-103.027,447.266
1738232991.288,-52.734,-35.156,22.461,-109.375,-193.848
1738232991.292,-38.086,-32.715,29.297,-81.055,-204.102
1738232991.296,-30.762,-37.598,25.391,-59.082,-150.391
1738232991.300,-41.504,-34.180,19.531,-84.961,-368.652
1738232991.304,-28.320,-39.551,13.184,-83.008,-236.328
1738232991.308,-15.137,-47.363,-0.977,-66.406,258.789
1738232991.311,-9.277,-41.016,-5.859,-79.102,-53.711
1738232991.315,-51.270,-45.410,-1.953,-91.309,-276.367
1738232991.319,-93.262,-59.082,-2.930,-81.543,-127.930
1738232991.323,-76.172,-46.387,-1.953,-74.219,-186.523
1738232991.327,-62.012,-34.180,-7.324,-76.660,-363.281
1738232991.351,-47.363,-41.504,-12.695,-29.785,-208.008
1738232991.355,-39.062,-41.992,-0.977,-10.742,94.238
1738232991.359,-34.668,-37.598,7.812,-63.965,-33.203
1738232991.363,-29.785,-33.691,16.602,-69.824,-319.336
1738232991.367,-18.555,-41.504,17.090,-64.453,-291.504
1738232991.371,-13.672,-49.316,4.883,-50.293,143.066
1738232991.375,-8.301,-46.387,-1.465,-39.062,193.848
1738232991.378,4.883,-45.898,-4.395,-58.594,-146.973
1738232991.382,-35.156,-49.805,-16.602,-58.594,-224.121
1738232991.386,-62.500,-50.293,-30.273,-34.668,104.004
1738232991.390,-61.523,-51.758,-36.621,-30.273,16.602
1738232991.394,-73.242,-51.758,-44.434,-41.992,-225.586
1738232991.403,-85.449,-36.133,-55.176,-60.059,-128.418
1738232991.407,-74.219,-40.527,-55.664,-63.477,230.957
1738232991.411,-71.777,-45.898,-70.801,-66.895,147.461
1738232991.415,-82.520,-44.434,-82.031,-57.617,-195.312
1738232991.419,-84.961,-54.199,-78.613,-47.852,-127.930
1738232991.423,-76.660,-50.781,-83.984,-56.152,78.125
1738232991.427,-70.801,-43.457,-93.262,-58.105,-50.781
1738232991.430,-53.223,-42.969,-98.145,-58.105,-281.738
1738232991.434,-21.973,-40.527,-99.609,-54.199,-158.203
1738232991.438,-58.594,-43.945,-109.863,-43.457,103.516
1738232991.442,-72.754,-39.551,-109.375,-45.410,21.484
1738232991.446,-36.133,-34.180,-109.863,-60.547,-194.336
1738232991.410,-7.324,-33.203,-115.234,-52.246,-33.203
1738232991.414,6.836,-24.414,-111.816,-45.898,385.254
1738232991.418,62.012,-17.090,-102.539,-62.500,193.848
1738232991.422,22.461,-26.855,-88.867,-72.266,-32.227
1738232991.463,116.211,26.367,31.738,-66.406,212.891
1738232991.467,87.891,24.902,28.809,-64.453,82.520
1738232991.471,43.945,31.250,35.645,-41.992,-127.930
1738232991.475,44.434,35.156,35.645,-29.297,-146.973
1738232991.479,77.637,26.855,25.879,-22.949,384.766
1738232991.483,116.699,39.062,45.410,55.664,961.426
1738232991.487,137.207,51.270,54.199,108.398,548.340
1738232991.490,139.648,50.781,43.945,72.266,46.875
1738232991.494,158.203,52.734,38.574,60.547,124.512
1738232991.498,151.855,74.707,28.809,88.379,-196.289
1738232991.502,114.258,83.008,26.367,132.324,-323.242
1738232991.506,138.672,58.105,30.273,177.246,-18.555
1738232991.510,185.547,55.176,42.969,155.273,38.086
1738232991.514,177.246,60.547,62.988,122.559,-265.625
1738232991.518,138.672,53.223,71.777,123.047,-352.539
1738232991.522,164.551,49.805,63.477,130.371,-44.434
1738232991.526,154.785,50.293,38.574,133.789,41.504
1738232991.530,128.418,42.969,26.855,129.883,-198.242
1738232991.534,141.113,32.715,32.227,114.258,-255.859
1738232991.537,148.438,29.785,16.602,109.863,57.617
1738232991.541,139.648,25.391,-11.230,117.188,19.531
1738232991.545,101.074,20.508,-15.137,111.816,-312.988
1738232991.549,108.398,12.207,-7.812,73.730,-167.969
1738232991.553,139.160,3.418,8.789,61.523,-4.395
1738232991.553,133.301,-5.859,16.602,67.383,-143.066
1738232991.557,107.422,-17.578,8.789,66.895,-348.145
1738232991.561,125.488,-20.508,-2.441,83.496,-223.145
1738232991.565,119.141,-13.672,-10.742,83.008,-48.828
1738232991.569,80.566,-20.996,-13.672,54.688,-245.117
1738232991.573,63.477,-24.414,-21.973,49.805,-299.316
1738232991.577,69.824,-24.902,-39.551,51.758,1.465
1738232991.580,76.660,-27.344,-35.645,44.434,518.555
1738232991.584,71.777,-25.879,-21.484,32.715,278.809
1738232991.588,75.684,-24.902,-13.672,38.086,-322.266
1738232991.592,102.051,-29.297,-17.578,70.312,-239.258
1738232991.596,107.422,-36.133,-32.227,62.012,-192.871
1738232991.599,105.469,-32.715,-26.367,31.250,-170.898
1738232991.603,101.562,-28.320,-18.066,25.879,-79.102
1738232991.607,127.930,-24.902,-20.508,28.320,-42.480
1738232991.611,100.586,-25.391,-35.645,38.574,-135.742
1738232991.615,30.273,-35.645,-34.668,36.133,-291.504
1738232991.619,56.641,-33.691,-24.414,45.898,-104.980
1738232991.623,85.449,-28.809,-27.832,38.086,322.266
1738232991.626,95.703,-31.738,-27.832,42.969,282.227
1738232991.630,103.516,-33.691,-24.902,16.602,-147.949
1738232991.634,74.219,-33.691,-28.320,17.090,-168.457
1738232991.638,79.590,-43.457,-39.551,47.852,4.883
1738232991.642,86.426,-53.711,-44.922,20.508,-21.484
1738232991.643,63.477,-57.129,-50.781,-14.648,-155.762
1738232991.647,64.453,-56.152,-53.711,-12.207,-166.016
1738232991.651,78.613,-49.805,-43.457,16.602,140.137
1738232991.655,84.473,-43.945,-48.340,26.855,166.992
1738232991.659,89.844,-46.875,-49.805,0.488,-51.270
1738232991.663,80.078,-49.316,-37.109,-9.766,3.906
1738232991.667,79.102,-44.434,-35.645,10.254,500.488
1738232991.670,53.223,-46.387,-38.086,16.113,170.410
1738232991.674,76.172,-50.293,-34.180,13.184,-213.867
1738232991.678,105.957,-47.852,-38.574,9.766,6.836
1738232991.682,73.730,-52.246,-51.270,-14.160,-46.875
1738232991.686,84.473,-55.176,-50.293,-26.855,-239.258
1738232991.705,84.961,-56.152,-38.086,-17.578,-264.648
1738232991.709,78.125,-56.152,-36.621,3.418,-68.848
1738232991.713,85.938,-50.293,-36.133,7.812,24.414
1738232991.717,97.168,-52.734,-27.344,-1.953,-117.676
1738232991.721,90.820,-56.641,-17.090,2.441,-128.906
1738232991.725,69.336,-49.805,-16.113,-20.996,154.785
1738232991.729,60.547,-47.363,-19.043,-13.184,251.953
1738232991.732,61.523,-47.852,-20.020,-0.977,132.324
1738232991.736,72.266,-46.387,-11.719,-26.367,-80.566
1738232991.740,87.402,-44.922,-5.859,-9.277,229.980
1738232991.744,81.543,-42.969,-18.066,8.789,310.547
1738232991.748,81.055,-41.504,-23.438,14.648,-100.586
1738232991.748,94.238,-50.293,-25.879,1.465,63.477
1738232991.752,80.566,-48.340,-26.855,-22.949,273.438
1738232991.756,83.496,-34.180,-28.809,-31.738,-34.180
1738232991.760,80.566,-39.551,-32.227,-28.809,-261.230
1738232991.764,51.758,-53.711,-24.902,-20.996,-156.250
1738232991.768,72.754,-41.992,-12.695,-8.301,52.734
1738232991.772,83.496,-33.203,-7.812,-8.301,79.590
1738232991.775,79.102,-37.598,-22.461,-15.625,-163.574
1738232991.779,94.727,-35.645,-32.227,19.043,-72.266
1738232991.783,81.055,-37.109,-30.762,36.621,505.371
1738232991.787,64.453,-42.969,-38.574,-21.484,307.617
1738232991.791,95.215,-40.039,-41.992,-35.645,-129.395
1738232991.794,104.004,-43.457,-36.621,-26.367,-104.004
1738232991.798,78.125,-39.551,-38.574,-32.227,-161.133
1738232991.802,70.312,-30.273,-42.480,-24.902,-205.566
1738232991.806,81.543,-35.645,-36.133,-10.254,-88.867
1738232991.810,96.191,-38.086,-38.574,15.137,51.758
1738232991.814,91.309,-39.062,-41.016,13.184,69.336
1738232991.818,82.520,-39.062,-34.668,-21.973,28.809
1738232991.821,105.957,-31.738,-29.297,-13.672,-47.363
1738232991.825,123.535,-39.551,-31.738,-12.695,308.594
1738232991.829,86.426,-44.434,-42.480,-43.457,324.219
1738232991.833,70.801,-44.434,-39.062,-41.016,-100.098
1738232991.837,89.844,-34.180,-30.762,-27.832,17.578
1738232991.838,83.496,-29.785,-42.480,-24.902,368.652
1738232991.842,76.172,-38.086,-48.340,-35.156,98.633
1738232991.846,98.145,-42.969,-40.527,-44.922,-104.004
1738232991.850,92.285,-43.945,-43.945,-50.781,-92.773
1738232991.854,84.961,-38.086,-46.875,-50.293,-83.496
1738232991.858,84.961,-38.574,-41.992,-43.457,46.875
1738232991.862,87.891,-41.016,-45.410,-11.719,-39.062
1738232991.865,91.309,-39.062,-49.316,-4.883,-2.930
1738232991.869,100.586,-40.527,-47.363,-21.973,498.535
1738232991.873,103.027,-38.574,-53.711,-21.973,164.551
1738232991.877,68.848,-46.875,-59.570,-23.438,-297.852
1738232991.881,59.082,-51.270,-53.711,-13.184,-99.609
1738232991.884,71.289,-45.898,-52.734,-33.691,-38.086
1738232991.888,66.895,-47.363,-52.734,-65.918,-78.125
1738232991.892,65.430,-48.340,-52.246,-65.918,-192.383
1738232991.896,79.102,-49.805,-62.988,-53.223,-5.859
1738232991.900,84.473,-50.293,-62.012,-29.785,83.496
1738232991.904,91.309,-47.852,-52.246,-14.160,25.879
1738232991.908,84.961,-43.945,-62.500,-33.691,109.375
1738232991.911,73.242,-40.527,-70.801,-44.922,270.996
1738232991.915,62.988,-36.133,-72.266,-56.152,157.715
1738232991.919,73.730,-33.203,-65.430,-50.781,-188.477
1738232991.923,83.496,-41.992,-56.152,-26.367,-141.602
1738232991.927,77.148,-45.898,-50.293,-16.602,-20.020
1738232991.928,75.195,-42.480,-43.457,-41.016,16.113
1738232991.932,69.824,-39.062,-35.156,-65.430,-186.035
1738232991.936,68.359,-45.898,-33.203,-43.945,-173.828
1738232991.940,76.172,-50.781,-43.945,-31.250,291.504
1738232991.944,83.984,-38.574,-50.293,-36.133,99.609
1738232991.948,76.172,-34.668,-43.457,-19.043,-145.508
1738232991.952,77.637,-35.156,-40.527,-27.832,71.777
1738232991.955,77.637,-36.133,-50.293,-43.457,531.250
1738232991.959,81.543,-31.250,-56.152,-29.297,286.133
1738232991.963,80.566,-30.762,-55.664,-25.391,-183.594
1738232991.967,92.773,-29.785,-55.176,-23.926,-137.695
1738232991.971,94.727,-28.809,-63.965,-26.855,-163.086
1738232991.976,90.332,-33.691,-79.102,-20.996,-237.793
1738232991.980,104.004,-41.504,-83.496,-11.230,-116.699
1738232991.984,77.637,-42.480,-89.844,-43.457,22.949
1738232991.988,45.898,-43.457,-94.238,-46.387,-112.793
1738232991.992,51.270,-42.480,-91.797,-28.320,-191.895
1738232991.996,78.125,-43.457,-91.797,-43.457,31.738
1738232992.000,81.543,-48.340,-82.031,-48.828,495.605
1738232992.003,51.758,-41.504,-77.637,-48.340,480.469
1738232992.007,32.715,-35.645,-74.219,-63.965,-143.555
1738232992.011,41.504,-40.527,-56.152,-51.270,-212.891
1738232992.015,48.828,-41.504,-48.828,-29.785,-31.250
1738232992.019,53.711,-44.434,-57.129,-42.969,-20.020
1738232992.018,57.617,-48.340,-59.570,-61.523,34.180
1738232992.022,50.781,-56.641,-52.734,-60.547,-81.055
1738232992.026,43.945,-48.828,-52.734,-36.621,-82.031
1738232992.030,45.410,-40.527,-54.688,-27.344,-135.254
1738232992.034,48.828,-51.270,-51.758,-54.688,-168.945
1738232992.038,47.852,-50.293,-53.711,-44.434,95.703
1738232992.042,45.898,-48.340,-61.523,-36.133,655.762
1738232992.045,43.457,-52.246,-62.500,-58.594,321.289
1738232992.049,42.480,-49.805,-56.641,-48.828,-233.398
1738232992.053,46.875,-54.688,-63.477,-42.969,35.156
1738232992.057,53.711,-61.035,-75.684,-65.430,386.230
1738232992.061,30.762,-50.781,-78.125,-79.590,-47.363
1738232992.093,8.301,-42.480,-78.613,-60.547,-303.711
1738232992.097,12.207,-53.223,-76.660,-53.223,-146.973
1738232992.101,20.508,-55.176,-76.172,-53.711,-94.238
1738232992.105,31.738,-43.945,-76.660,-48.340,-129.883
1738232992.109,44.434,-40.527,-78.613,-47.852,-177.246
1738232992.113,40.039,-45.898,-86.914,-50.293,-9.766
1738232992.117,26.367,-43.457,-92.285,-39.551,-1.465
1738232992.120,22.461,-35.156,-93.750,-27.832,-134.766
1738232992.124,41.016,-32.715,-89.844,-32.715,-87.402
1738232992.128,53.711,-38.086,-82.031,-27.832,141.602
1738232992.132,21.484,-49.316,-76.660,-34.180,-21.484
1738232992.136,-12.695,-52.246,-77.637,-55.664,-136.230
1738232992.153,4.883,-46.875,-76.660,-63.965,58.105
1738232992.157,43.457,-49.805,-71.777,-51.758,491.211
1738232992.161,40.039,-48.828,-74.219,-61.035,427.734
1738232992.165,36.133,-43.945,-71.289,-56.641,-244.629
1738232992.169,26.855,-36.133,-67.871,-35.156,-336.426
1738232992.173,9.766,-42.480,-67.871,-41.992,-46.387
1738232992.177,24.414,-45.410,-72.266,-29.785,90.820
1738232992.180,34.180,-38.086,-65.918,-39.551,-95.215
1738232992.184,30.762,-41.016,-60.547,-60.059,-186.035
1738232992.188,46.875,-35.156,-62.012,-50.293,-148.438
1738232992.192,55.664,-37.109,-58.105,-53.711,-205.566
1738232992.196,31.250,-34.668,-58.594,-39.062,-233.887
1738232992.160,23.438,-27.832,-59.570,-30.762,10.254
1738232992.164,11.719,-30.762,-60.547,-22.949,542.969
1738232992.168,4.883,-27.832,-69.336,-36.133,61.035
1738232992.172,21.973,-28.320,-73.242,-58.105,-286.621
1738232992.176,28.809,-35.645,-72.754,-35.645,46.875
1738232992.180,7.812,-40.527,-74.219,-19.531,20.508
1738232992.184,0.488,-36.133,-73.730,-35.645,-110.352
1738232992.187,3.906,-36.133,-70.801,-41.504,-116.211
1738232992.191,3.906,-37.598,-71.777,-23.926,8.301
1738232992.195,17.090,-32.715,-63.477,-8.789,-35.645
1738232992.199,9.766,-36.621,-72.266,-28.809,-181.641
1738232992.203,0.000,-43.457,-80.078,-47.363,-118.164
1738232992.214,4.395,-42.969,-74.707,-41.016,121.094
1738232992.218,1.953,-36.133,-77.637,-46.875,-65.430
1738232992.222,-4.395,-34.180,-75.195,-50.293,-157.715
1738232992.226,5.859,-39.062,-72.266,-36.621,18.066
1738232992.230,20.020,-40.527,-73.242,-23.926,478.516
1738232992.234,9.766,-35.156,-68.848,-22.949,803.711
1738232992.238,-1.953,-30.273,-70.801,-45.410,342.773
1738232992.241,-0.488,-36.133,-67.871,-43.945,-32.715
1738232992.245,-1.953,-43.457,-62.012,-35.156,34.668
1738232992.249,-2.441,-41.992,-63.965,-37.598,-201.660
1738232992.253,0.000,-36.133,-57.129,-36.621,-358.398
1738232992.257,3.906,-32.227,-54.199,-28.809,-196.777
1738232992.288,13.184,-31.738,-70.801,-20.996,-56.152
1738232992.292,20.020,-33.691,-62.012,-27.344,-153.809
1738232992.296,17.578,-36.133,-48.340,-29.785,-172.363
1738232992.300,8.789,-43.945,-52.246,-23.926,-102.539
1738232992.304,2.930,-41.016,-57.617,-29.785,-201.660
1738232992.308,3.906,-36.621,-62.988,-34.180,-95.703
1738232992.312,-1.465,-42.480,-59.082,-30.273,-26.855
1738232992.315,-13.672,-51.270,-59.082,-29.297,344.238
1738232992.319,-19.043,-50.781,-73.242,-47.363,533.203
1738232992.323,-19.531,-40.527,-76.172,-49.316,-100.586
1738232992.327,-3.418,-43.457,-70.312,-32.227,-246.582
1738232992.331,3.906,-50.293,-68.359,-25.391,-16.602
1738232992.349,-1.953,-42.480,-70.801,-14.648,-16.113
1738232992.353,0.000,-39.062,-71.289,-29.297,-277.832
1738232992.357,8.789,-39.062,-67.383,-40.039,-260.254
1738232992.361,0.977,-37.598,-68.359,-26.367,144.043
1738232992.365,-21.484,-43.457,-71.289,-33.691,33.203
1738232992.369,-25.391,-49.316,-75.684,-43.457,-151.367
1738232992.373,-6.348,-46.387,-77.637,-50.781,-28.320
1738232992.376,-0.977,-50.293,-81.055,-50.293,-80.566
1738232992.380,-14.648,-48.340,-82.520,-31.738,-147.461
1738232992.384,-21.973,-34.180,-89.355,-31.738,-18.066
1738232992.388,-3.418,-33.203,-96.191,-36.133,-24.902
1738232992.392,11.230,-37.598,-93.262,-36.133,-64.941
1738232992.356,-8.301,-40.527,-86.914,-47.852,-197.266
1738232992.360,-10.254,-45.410,-86.914,-34.180,-270.020
1738232992.364,-7.324,-49.316,-86.426,-2.441,108.398
1738232992.368,-41.504,-45.898,-85.938,-20.020,307.129
1738232992.372,-48.340,-34.180,-90.332,-38.574,-146.973
1738232992.376,-28.809,-42.480,-89.355,-41.992,-93.262
1738232992.380,-16.113,-51.758,-87.402,-35.156,295.898
1738232992.383,-7.812,-42.969,-84.961,-8.789,112.305
1738232992.387,-11.719,-41.016,-83.496,-10.742,-179.199
1738232992.391,-28.809,-43.945,-92.773,-35.156,-219.727
1738232992.395,-35.645,-38.574,-88.867,-34.180,171.387
1738232992.399,-36.621,-35.645,-82.031,-41.504,319.824
1738232992.394,-35.156,-44.434,-78.613,-37.109,40.527
1738232992.398,-36.621,-44.434,-68.848,-38.574,-29.297
1738232992.402,-35.645,-38.086,-61.035,-52.246,-13.184
1738232992.406,-20.020,-39.062,-63.477,-42.480,-161.133
1738232992.410,2.930,-36.133,-63.965,-30.762,-251.953
1738232992.414,4.883,-36.621,-52.246,-19.043,32.227
1738232992.418,-20.508,-47.363,-50.293,-17.090,660.156
1738232992.421,-31.738,-44.922,-57.129,-25.879,762.207
1738232992.425,-32.227,-38.574,-60.059,-50.293,429.688
1738232992.429,-32.715,-37.598,-62.988,-56.152,-76.172
1738232992.433,-29.297,-32.715,-61.035,-39.551,-259.766
1738232992.437,-27.832,-30.273,-62.988,-49.805,-256.348
1738232992.453,-17.090,-31.250,-69.336,-35.156,-351.562
1738232992.457,-18.555,-36.621,-66.406,4.395,-182.129
1738232992.461,-20.508,-36.133,-66.406,-28.809,-172.363
1738232992.465,-24.414,-31.250,-76.660,-33.203,-282.227
1738232992.498,-37.109,-39.551,-63.965,-25.391,-85.449
1738232992.502,-16.113,-33.203,-66.406,-30.273,217.773
1738232992.506,-11.230,-34.668,-70.801,-39.551,-0.488
1738232992.510,-22.949,-35.645,-74.219,-57.617,-277.344
1738232992.514,-46.387,-40.039,-73.730,-50.781,-136.230
1738232992.518,-60.059,-39.062,-73.242,-31.250,54.688
1738232992.522,-43.945,-29.297,-76.172,-22.949,54.199
1738232992.525,-36.133,-28.809,-75.684,-19.531,-165.527
1738232992.529,-45.410,-30.762,-74.707,-19.531,-135.254
1738232992.533,-36.621,-27.832,-83.008,-19.531,231.445
1738232992.537,-30.273,-23.926,-76.660,-26.367,-103.027
1738232992.541,-32.715,-34.180,-70.312,-26.855,-309.082
1738232992.543,-27.344,-42.969,-71.289,-43.945,-27.832
1738232992.547,-40.039,-36.133,-76.172,-57.617,-13.184
1738232992.551,-59.570,-32.227,-76.660,-58.105,-233.398
1738232992.555,-56.641,-29.785,-79.590,-48.340,-294.434
1738232992.559,-36.621,-27.832,-87.402,-11.230,-118.652
1738232992.563,-12.695,-37.109,-84.473,5.371,63.965
1738232992.567,-9.766,-41.016,-79.102,-38.086,18.066
1738232992.570,-44.922,-38.574,-75.195,-79.102,-12.695
1738232992.574,-51.758,-42.969,-77.148,-48.828,282.227
1738232992.578,-41.992,-43.945,-81.543,-13.672,415.039
1738232992.582,-57.129,-39.062,-85.938,-35.645,-83.984
1738232992.586,-64.453,-37.109,-85.449,-33.203,-184.570
1738232992.588,-41.504,-43.457,-82.520,-27.832,-0.977
1738232992.592,-24.414,-41.504,-77.148,-53.223,-199.219
1738232992.596,-43.457,-25.879,-74.707,-43.945,-322.266
1738232992.600,-56.152,-21.484,-79.102,-23.438,-151.367
1738232992.604,-50.781,-22.461,-77.637,-28.809,7.812
1738232992.608,-42.969,-25.879,-73.730,-30.273,-47.363
1738232992.612,-40.039,-29.785,-76.172,-30.273,-171.387
1738232992.615,-41.504,-30.762,-76.172,-20.996,-193.359
1738232992.619,-32.715,-35.156,-80.078,-20.020,396.484
1738232992.623,-38.086,-37.109,-84.473,-38.574,248.535
1738232992.627,-40.039,-33.691,-79.590,-45.898,-287.598
1738232992.631,-47.363,-34.668,-75.195,-35.156,-164.062
1738232992.636,-57.617,-38.086,-73.242,-16.113,-80.566
1738232992.640,-47.363,-39.551,-70.801,1.465,-188.965
1738232992.644,-45.410,-32.715,-66.895,-16.602,-181.152
1738232992.648,-41.016,-32.715,-63.477,-49.316,-125.488
1738232992.652,-30.273,-35.645,-68.848,-49.805,-210.449
1738232992.656,-32.227,-31.738,-71.289,-30.762,-182.617
1738232992.660,-30.273,-29.785,-68.359,-15.137,34.180
1738232992.663,-41.504,-38.086,-74.707,-15.137,309.570
1738232992.667,-53.711,-37.109,-74.219,-37.598,130.371
1738232992.671,-40.527,-38.086,-65.430,-35.156,-369.629
1738232992.675,-41.992,-41.992,-63.477,-5.371,-332.031
1738232992.679,-36.621,-26.367,-67.383,16.602,24.902
1738232992.679,-37.109,-21.973,-65.918,12.695,25.391
1738232992.683,-48.828,-20.996,-63.965,-16.602,-142.090
1738232992.687,-33.691,-26.367,-66.895,-39.062,-145.508
1738232992.691,-32.227,-36.621,-60.547,-44.434,-123.047
1738232992.695,-32.227,-35.156,-64.453,-36.621,-219.727
1738232992.699,-31.738,-41.992,-62.988,-28.320,-119.141
1738232992.703,-40.039,-43.457,-53.711,-35.645,6.836
1738232992.706,-41.992,-25.391,-57.129,-28.320,402.832
1738232992.710,-49.805,-20.020,-57.617,-20.020,408.691
1738232992.714,-48.340,-26.855,-60.059,-41.992,-178.711
1738232992.718,-36.621,-32.715,-64.453,-34.668,-208.496
1738232992.722,-34.668,-32.715,-58.105,-23.438,-181.641
1738232992.725,-29.785,-26.855,-49.316,-41.016,-340.332
1738232992.729,-19.043,-26.367,-55.664,-33.691,-314.941
1738232992.733,-26.367,-34.668,-54.688,-16.602,-83.496
1738232992.737,-47.852,-39.551,-52.246,-32.227,-59.082
1738232992.741,-72.754,-34.668,-55.176,-47.363,-213.867
1738232992.745,-67.383,-34.668,-56.152,-33.203,-161.621
1738232992.749,-50.293,-42.480,-55.664,-6.348,343.262
1738232992.752,-38.086,-40.039,-56.641,-8.789,509.277
1738232992.756,-29.297,-30.273,-54.199,-0.977,-49.316
1738232992.760,-20.020,-29.297,-51.270,-14.160,-243.164
1738232992.764,-38.086,-30.762,-51.758,-34.668,-162.598
1738232992.768,-54.199,-34.180,-47.363,-25.391,-216.797
1738232992.768,-54.688,-31.738,-41.992,-19.043,-229.492
1738232992.772,-48.828,-31.250,-44.922,-6.348,-76.172
1738232992.776,-38.086,-40.039,-51.270,-1.465,193.359
1738232992.780,-39.551,-34.180,-58.105,-20.508,-55.664
1738232992.784,-42.480,-29.297,-56.641,-23.926,-203.125
1738232992.788,-43.945,-36.621,-53.711,-13.184,-47.852
1738232992.792,-32.715,-42.969,-54.688,-18.066,624.023
1738232992.795,-23.926,-33.691,-52.246,-28.320,594.727
1738232992.799,-29.785,-24.414,-47.363,-23.926,-197.266
1738232992.803,-45.410,-30.762,-50.293,-20.020,-258.789
1738232992.807,-46.387,-29.785,-55.176,-17.578,-149.414
1738232992.811,-40.039,-20.508,-55.176,-17.090,-180.664
1738232992.818,-46.387,-19.531,-60.547,-11.719,-167.969
1738232992.822,-52.734,-22.949,-60.547,-14.160,-114.258
1738232992.826,-54.199,-32.715,-60.059,-40.039,-165.039
1738232992.830,-48.828,-37.109,-59.082,-35.156,-260.254
1738232992.834,-37.598,-36.133,-53.223,-22.949,-136.230
1738232992.838,-24.902,-33.203,-53.223,-17.090,215.332
1738232992.842,-43.945,-27.832,-53.711,-18.555,65.430
1738232992.845,-56.152,-32.715,-52.734,-30.762,-191.895
1738232992.849,-51.270,-35.156,-55.664,-26.367,-117.676
1738232992.853,-52.734,-31.250,-61.523,-15.137,178.711
1738232992.857,-39.551,-27.832,-58.594,-24.902,0.977
1738232992.861,-29.785,-34.180,-53.223,-34.180,-238.281
1738232992.888,-39.062,-33.203,-62.012,-39.062,-35.645
1738232992.892,-38.086,-28.320,-62.988,-24.902,17.090
1738232992.896,-30.273,-29.297,-50.293,-9.277,-88.379
1738232992.900,-53.711,-32.715,-50.781,-37.598,-147.949
1738232992.904,-61.035,-28.809,-55.664,-48.340,-181.641
1738232992.908,-48.340,-31.738,-52.246,-33.691,482.910
1738232992.912,-63.965,-36.133,-51.758,-41.504,841.309
1738232992.915,-86.914,-30.762,-63.965,-53.223,224.609
1738232992.919,-79.590,-38.574,-62.500,-43.945,-47.852
1738232992.923,-56.152,-37.109,-53.711,-52.734,33.203
1738232992.927,-45.898,-29.297,-50.293,-51.758,-219.727
1738232992.931,-46.875,-29.297,-46.875,-41.992,-382.324
1738232992.918,-45.410,-41.992,-46.875,-29.785,-108.887
1738232992.922,-54.688,-36.621,-54.199,-28.320,23.926
1738232992.926,-59.082,-27.344,-60.059,-40.039,-199.707
1738232992.930,-54.199,-36.621,-55.176,-12.695,-248.535
1738232992.934,-54.199,-36.133,-53.711,-13.184,-127.930
1738232992.938,-43.457,-36.621,-64.453,-53.223,-68.848
1738232992.942,-41.992,-31.738,-66.895,-54.688,-92.773
1738232992.945,-50.293,-26.855,-65.918,-50.293,-106.445
1738232992.949,-50.781,-35.645,-62.012,-41.016,-100.098
1738232992.953,-50.781,-33.203,-69.824,-37.109,-187.012
1738232992.957,-48.340,-29.297,-79.102,-34.180,-177.246
1738232992.961,-48.828,-32.715,-65.430,-26.855,-44.434
1738232992.994,-42.969,-37.109,-57.617,-20.996,507.324
1738232992.998,-28.320,-45.410,-65.430,-16.602,807.129
1738232993.002,-42.969,-40.527,-76.172,-24.414,97.656
1738232993.006,-44.922,-31.738,-72.266,-29.297,-270.020
1738232993.010,-29.297,-27.344,-68.359,-25.391,-125.977
1738232993.014,-33.691,-28.320,-66.895,-33.203,-40.527
1738232993.018,-44.922,-33.203,-66.406,-43.945,-91.797
1738232993.021,-58.105,-32.715,-74.707,-25.391,-55.664
1738232993.025,-54.199,-31.738,-76.660,-4.883,288.574
1738232993.029,-44.434,-24.414,-68.848,-8.789,7.812
1738232993.033,-38.086,-20.020,-68.359,-20.996,-315.918
1738232993.037,-35.645,-28.809,-68.848,-16.113,-156.738
1738232993.024,-49.805,-29.785,-69.824,-6.348,-23.438
1738232993.028,-51.270,-17.578,-77.637,-8.301,-191.895
1738232993.032,-53.711,-20.996,-85.449,-20.996,-93.750
1738232993.036,-47.363,-27.832,-80.566,-31.738,37.598
1738232993.040,-40.039,-23.438,-84.473,-42.480,-154.785
1738232993.044,-54.199,-23.926,-93.262,-35.645,-110.840
1738232993.048,-51.758,-42.480,-89.355,-26.855,74.219
1738232993.051,-48.828,-48.828,-90.820,-13.672,160.645
1738232993.055,-43.457,-35.645,-94.727,-30.762,-22.949
1738232993.059,-44.922,-33.691,-94.238,-51.758,-289.551
1738232993.063,-52.246,-29.785,-93.750,-42.480,-248.535
1738232993.067,-40.039,-26.855,-94.238,-28.809,34.180
1738232993.053,-34.668,-30.762,-98.145,-19.043,134.766
1738232993.057,-41.016,-27.832,-98.145,-25.879,-96.680
1738232993.061,-53.711,-32.227,-96.680,-35.645,-236.816
1738232993.065,-46.875,-41.504,-102.539,-25.879,277.832
1738232993.069,-32.227,-36.133,-100.098,-21.973,588.379
1738232993.073,-34.668,-31.250,-95.215,-23.926,132.812
1738232993.077,-38.574,-30.273,-92.773,-30.273,36.133
1738232993.080,-55.176,-27.832,-89.355,-38.086,-12.695
1738232993.084,-41.992,-32.227,-89.355,-32.227,-265.137
1738232993.088,-38.574,-33.203,-88.867,-44.922,-353.516
1738232993.092,-59.082,-35.645,-91.797,-40.527,-138.184
1738232993.096,-54.688,-36.621,-90.332,-20.508,422.363
1738232993.098,-47.852,-27.344,-84.961,-25.879,87.891
1738232993.102,-53.711,-24.414,-83.008,-37.109,-329.590
1738232993.106,-52.246,-33.203,-78.125,-28.809,-104.980
1738232993.110,-43.457,-38.574,-72.754,-12.695,-119.141
1738232993.114,-43.945,-31.738,-79.102,-22.949,-204.102
1738232993.118,-60.059,-23.438,-85.449,-50.781,-74.219
1738232993.122,-67.383,-21.484,-83.496,-53.711,337.402
1738232993.125,-73.242,-22.461,-83.984,-59.570,377.441
1738232993.129,-70.801,-25.879,-80.078,-52.246,-125.977
1738232993.133,-64.453,-29.297,-74.707,-36.133,-205.566
1738232993.137,-62.012,-23.438,-75.684,-41.992,-25.879
1738232993.141,-45.898,-7.812,-71.289,-28.320,-95.215
1738232993.173,-53.223,-14.648,-69.336,-34.668,-41.504
1738232993.177,-80.566,-30.762,-73.730,-47.363,-1.465
1738232993.181,-66.895,-25.879,-71.777,-48.828,332.031
1738232993.185,-62.500,-22.461,-72.754,-62.988,169.922
1738232993.189,-66.895,-24.414,-72.754,-41.992,-272.461
1738232993.193,-45.410,-28.320,-72.266,-38.574,-66.406
1738232993.197,-31.738,-31.250,-69.824,-41.504,277.344
1738232993.200,-41.992,-28.809,-64.453,-34.180,62.500
1738232993.204,-42.969,-27.344,-63.965,-40.039,-285.156
1738232993.208,-35.645,-26.367,-60.059,-39.062,-103.516
1738232993.212,-36.621,-28.320,-55.176,-41.992,215.332
1738232993.216,-45.410,-30.273,-57.129,-29.785,-65.430
1738232993.193,-65.918,-32.715,-55.176,-25.879,-201.172
1738232993.197,-59.570,-37.109,-54.199,-36.133,-60.547
1738232993.201,-42.480,-37.598,-48.340,-30.762,-77.148
1738232993.205,-45.410,-32.715,-44.922,-19.043,-190.918
1738232993.209,-53.711,-35.156,-51.758,-17.578,-168.457
1738232993.213,-47.363,-31.250,-43.457,-8.301,204.590
1738232993.217,-34.180,-20.996,-41.992,-8.789,151.367
1738232993.220,-53.711,-35.156,-51.758,-23.926,-198.730
1738232993.224,-39.551,-36.621,-41.016,-13.672,-197.754
1738232993.228,-31.738,-36.133,-35.156,-21.973,25.391
1738232993.232,-44.434,-27.832,-41.016,-27.344,-29.297
1738232993.236,-54.688,-22.461,-54.199,-41.992,-193.359
1738232993.278,-69.336,-42.969,-64.453,-64.453,-27.832
1738232993.282,-30.762,-28.809,-52.246,-26.855,319.824
1738232993.286,-29.297,-9.766,-42.480,-7.812,25.879
1738232993.290,-48.340,-18.555,-39.062,-7.812,-238.770
1738232993.294,-45.410,-34.668,-44.434,-18.066,-125.977
1738232993.298,-27.344,-33.691,-42.969,-7.812,478.516
1738232993.302,-24.414,-23.438,-39.062,-3.906,763.184
1738232993.305,-52.734,-28.320,-51.758,-37.109,123.047
1738232993.309,-5.371,-2.930,-32.227,10.742,-187.500
1738232993.313,22.461,4.395,-20.020,26.367,-90.332
1738232993.317,0.488,-6.836,-32.715,15.625,-212.891
1738232993.321,9.766,4.883,-30.273,29.785,-291.504
1738232993.293,2.930,3.418,-34.180,24.414,-113.770
1738232993.297,-8.301,1.465,-20.508,63.965,38.574
1738232993.301,12.695,13.672,-14.648,44.922,-68.359
1738232993.305,11.719,16.113,-39.062,-28.809,-207.520
1738232993.309,17.578,18.066,-23.926,1.465,-32.227
1738232993.313,28.809,17.578,1.953,20.508,72.266
1738232993.317,-5.371,-3.418,-2.441,-0.977,-104.004
1738232993.320,-41.992,-6.836,-7.812,11.719,-117.676
1738232993.324,-43.457,-2.930,-6.348,4.395,72.754
1738232993.328,-34.180,-11.230,-8.789,1.465,-73.242
1738232993.332,-28.320,-1.953,-13.672,4.883,-307.617
1738232993.336,-55.176,-2.441,-6.836,-23.926,-141.113
1738232993.339,-75.195,-12.695,0.488,-47.852,85.449
1738232993.343,-95.215,-13.672,0.488,-72.266,-102.539
1738232993.347,-84.473,3.418,-2.441,-60.547,-256.836
1738232993.351,-85.449,-1.465,-11.719,-38.574,-202.637
1738232993.355,-101.074,-19.531,0.977,-47.852,394.043
1738232993.359,-91.309,-12.207,9.766,-61.523,824.219
1738232993.363,-109.863,-21.484,1.953,-68.359,180.176
1738232993.366,-83.008,-27.832,-7.324,-63.965,19.531
1738232993.370,-62.988,-25.879,2.930,-47.363,330.078
1738232993.374,-78.125,-41.504,19.043,-22.461,-52.734
1738232993.378,-67.871,-41.992,14.648,-21.484,-277.832
1738232993.382,-75.195,-41.992,8.789,-45.898,-156.250
1738232993.398,-74.707,-48.828,3.906,-55.176,-204.102
1738232993.402,-48.828,-44.434,-7.324,-44.922,-297.363
1738232993.406,-51.758,-39.062,-15.625,-39.551,-260.254
1738232993.410,-51.758,-44.434,-27.832,-43.945,-112.793
1738232993.414,-34.668,-45.410,-30.273,-29.785,-156.250
1738232993.418,-23.926,-40.527,-24.902,-14.160,-160.645
1738232993.422,-22.461,-34.180,-35.156,-19.043,-104.492
1738232993.425,-24.414,-46.875,-37.109,-23.926,243.164
1738232993.429,-36.133,-64.453,-36.133,0.977,364.746
1738232993.433,-41.992,-52.734,-42.969,-2.441,-120.117
1738232993.437,-47.852,-52.734,-38.086,-24.902,-282.227
1738232993.441,-36.133,-67.871,-30.273,3.906,251.465
1738232993.444,-42.969,-72.754,-40.527,1.953,417.969
1738232993.448,-44.922,-62.012,-41.504,-8.789,-107.910
1738232993.452,-29.785,-58.105,-28.809,-9.766,-178.711
1738232993.456,-31.738,-60.059,-34.180,-25.879,-6.836
1738232993.460,-24.902,-55.664,-43.945,-11.230,-180.664
1738232993.464,-17.090,-43.945,-40.039,-4.883,-215.820
1738232993.468,-18.555,-41.992,-40.527,-16.113,71.777
1738232993.471,-34.668,-52.246,-45.410,-40.039,83.984
1738232993.475,-42.969,-43.945,-56.641,-45.898,-218.750
1738232993.479,-38.086,-49.316,-55.664,-41.504,-296.387
1738232993.483,-33.691,-53.711,-41.016,-36.621,-55.664
1738232993.487,-44.434,-53.223,-45.410,-19.043,499.023
1738232993.477,-50.293,-49.805,-58.105,-26.855,202.148
1738232993.481,-30.762,-49.805,-64.941,-36.133,-264.648
1738232993.485,-23.926,-52.734,-67.871,-33.203,-96.191
1738232993.489,-21.973,-41.504,-68.848,-27.832,-91.309
1738232993.520,-35.645,-37.598,-64.941,-24.414,-238.281
1738232993.524,-23.438,-46.875,-51.270,-4.395,-39.062
1738232993.528,-18.555,-45.410,-55.664,16.602,458.984
1738232993.532,-53.711,-30.762,-62.500,-5.859,255.371
1738232993.536,-58.105,-34.668,-58.594,-41.016,-246.582
1738232993.540,-40.527,-36.133,-55.664,-23.438,-62.012
1738232993.544,-43.945,-37.109,-53.711,-22.949,540.039
1738232993.547,-52.734,-29.785,-47.363,-35.645,648.438
1738232993.551,-62.500,-15.137,-51.270,-38.574,14.160
1738232993.555,-48.340,-15.625,-58.594,-32.715,-291.504
1738232993.559,-30.762,-18.555,-64.941,-39.551,-289.551
1738232993.563,-50.293,-21.484,-68.848,-35.156,-338.867
1738232993.579,-66.895,-18.555,-79.590,-42.480,-276.367
1738232993.583,-60.547,-8.301,-78.613,-74.219,-101.074
1738232993.587,-42.969,1.465,-67.871,-74.219,-84.961
1738232993.591,-45.410,5.859,-81.543,-66.406,-188.965
1738232993.595,-60.059,5.859,-85.938,-68.359,-302.246
1738232993.599,-70.312,1.953,-69.336,-66.895,226.562
1738232993.603,-90.332,4.395,-71.777,-69.336,530.273
1738232993.606,-96.680,13.672,-76.172,-81.055,-83.496
1738232993.610,-90.820,14.648,-78.613,-87.402,-255.371
1738232993.614,-83.984,14.160,-71.777,-87.402,59.082
1738232993.618,-87.891,20.508,-70.801,-84.961,-72.754
1738232993.622,-91.309,27.832,-74.219,-84.473,-216.309
1738232993.624,-79.590,24.414,-74.707,-84.473,14.648
1738232993.628,-83.984,18.555,-79.590,-100.586,197.266
1738232993.632,-111.816,26.855,-84.961,-106.934,-105.957
1738232993.636,-95.215,40.039,-78.125,-89.844,-313.965
1738232993.640,-76.660,34.668,-78.125,-80.078,-113.770
1738232993.644,-81.055,29.297,-89.355,-99.609,28.809
1738232993.648,-79.590,32.227,-82.520,-103.516,50.293
1738232993.651,-71.289,30.762,-80.566,-98.145,-88.867
1738232993.655,-54.688,30.273,-88.379,-96.191,-91.797
1738232993.659,-51.758,25.879,-83.008,-80.078,419.434
1738232993.663,-61.523,16.602,-87.891,-83.984,172.852
1738232993.667,-64.453,18.066,-95.703,-89.844,-316.895
1738232993.668,-68.848,25.879,-89.355,-94.238,-211.914
1738232993.672,-60.059,26.855,-88.379,-91.309,-165.527
1738232993.676,-35.156,26.855,-94.727,-72.754,-239.746
1738232993.680,-43.457,17.090,-90.332,-72.266,-205.078
1738232993.684,-44.922,6.836,-83.984,-57.617,-108.398
1738232993.688,-34.668,11.719,-79.102,-30.762,-70.312
1738232993.692,-43.457,3.418,-79.102,-25.879,-16.113
1738232993.695,-41.016,-9.277,-90.820,-23.926,-81.543
1738232993.699,-16.602,-19.531,-91.797,-44.434,307.617
1738232993.703,-17.090,-11.719,-85.449,-55.664,532.227
1738232993.707,-35.156,4.883,-80.566,-47.363,-100.098
1738232993.711,-31.250,-9.766,-76.172,-26.367,-245.117
1738232993.728,-31.738,-17.578,-78.125,-10.254,39.062
1738232993.732,-24.902,-17.090,-77.148,3.906,-60.059
1738232993.736,-37.598,-26.855,-76.660,-14.648,-283.203
1738232993.740,-39.062,-25.391,-71.777,-20.996,-223.633
1738232993.744,-38.574,-27.832,-62.012,-6.836,-1.953
1738232993.748,-36.133,-29.785,-57.617,-13.184,-14.648
1738232993.752,-31.250,-25.879,-58.594,-26.367,-113.770
1738232993.755,-31.250,-37.109,-55.664,-20.996,-46.875
1738232993.759,-25.879,-44.434,-48.340,-17.578,328.613
1738232993.763,-26.855,-32.715,-54.688,-17.578,43.457
1738232993.767,-40.039,-31.738,-56.641,-7.812,-145.996
1738232993.771,-43.457,-45.898,-50.781,-14.648,27.832
1738232993.758,-37.109,-45.410,-47.363,-23.926,2.441
1738232993.762,-24.414,-40.527,-46.875,-25.879,-208.008
1738232993.766,-29.297,-40.527,-43.457,-13.672,-219.238
1738232993.770,-42.480,-45.898,-34.180,7.324,-3.418
1738232993.774,-50.293,-52.734,-37.109,-8.301,-37.109
1738232993.778,-52.734,-46.875,-43.945,-10.254,-132.324
1738232993.782,-49.805,-41.992,-42.480,8.301,0.488
1738232993.785,-35.645,-47.363,-43.945,14.160,106.934
1738232993.789,-36.133,-44.922,-47.852,-5.859,-46.387
1738232993.793,-40.527,-43.457,-45.410,-27.832,-173.828
1738232993.797,-44.922,-52.734,-42.480,-32.227,-236.328
1738232993.801,-52.734,-59.570,-38.574,-11.719,242.676
1738232993.804,-53.223,-55.176,-42.969,3.906,622.559
1738232993.808,-43.945,-46.875,-43.457,-5.371,83.984
1738232993.812,-36.133,-37.109,-39.551,-17.578,-104.492
1738232993.816,-43.457,-37.109,-39.062,-18.555,146.973
1738232993.820,-40.039,-35.156,-40.527,-16.113,-78.613
1738232993.824,-29.297,-36.621,-42.480,-14.648,-214.844
1738232993.828,-23.926,-41.992,-40.039,-14.648,57.617
1738232993.831,-11.230,-43.457,-38.574,-7.324,410.156
1738232993.835,-28.320,-33.203,-33.691,-10.254,2.930
1738232993.839,-45.410,-29.297,-32.715,-22.461,-367.188
1738232993.843,-39.551,-39.062,-37.109,-23.438,-215.820
1738232993.847,-31.738,-42.480,-39.062,-27.344,-178.223
1738232993.863,-23.926,-43.457,-40.527,-35.645,-193.359
1738232993.867,-31.738,-46.387,-39.551,-22.949,-177.246
1738232993.871,-41.992,-50.781,-42.969,-3.906,-86.914
1738232993.875,-38.574,-42.480,-44.434,-9.766,9.277
1738232993.879,-43.945,-40.527,-40.039,-26.855,-140.137
1738232993.883,-45.410,-52.734,-41.504,-24.902,-138.184
1738232993.887,-46.875,-54.199,-49.316,-11.230,353.516
1738232993.890,-63.965,-45.410,-47.852,-20.508,355.957
1738232993.894,-57.129,-42.480,-40.527,-19.531,-213.379
1738232993.898,-51.758,-43.945,-48.828,-15.137,-193.359
1738232993.902,-40.527,-42.480,-51.270,-16.602,205.078
1738232993.906,-33.691,-41.504,-50.293,-23.438,3.418
1738232993.908,-44.434,-40.527,-56.641,-21.484,-242.188
1738232993.912,-48.340,-41.016,-52.734,-2.930,-81.543
1738232993.916,-48.828,-42.480,-47.852,-4.395,153.320
1738232993.920,-47.363,-36.621,-45.898,-16.602,-30.762
1738232993.924,-44.922,-32.715,-46.387,-21.484,-268.066
1738232993.928,-52.246,-34.668,-54.688,-13.672,-52.246
1738232993.932,-46.875,-44.922,-58.594,-1.465,335.449
1738232993.935,-40.527,-47.363,-57.129,-6.348,151.367
1738232993.939,-34.180,-38.086,-48.828,-13.184,-181.641
1738232993.943,-33.691,-43.945,-42.480,-17.578,-92.773
1738232993.947,-21.973,-52.246,-29.785,7.324,409.180
1738232993.951,-15.137,-33.691,-30.762,19.531,148.926
1738232993.953,-36.621,-12.695,-41.992,-4.883,-264.160
1738232993.957,-59.570,-8.789,-49.316,-20.996,-153.320
1738232993.961,-67.383,-1.465,-70.801,-39.062,-76.172
1738232993.965,-65.430,-5.371,-67.383,-61.523,-197.754
1738232993.969,-95.215,-2.441,-40.527,-79.102,-254.395
1738232993.973,-103.516,-3.906,-39.062,-65.430,32.227
1738232993.977,-96.191,-5.859,-46.875,-75.195,177.734
1738232993.980,-110.352,0.977,-45.898,-110.352,-35.645
1738232993.984,-119.629,10.254,-52.246,-124.023,-155.762
1738232993.988,-119.629,0.000,-59.082,-119.141,236.328
1738232993.992,-95.703,-4.395,-58.594,-96.680,534.668
1738232993.996,-96.191,14.160,-65.918,-114.258,1.953
1738232994.001,-93.262,5.371,-72.266,-131.348,-101.562
1738232994.005,-113.281,3.418,-62.500,-131.836,214.355
1738232994.009,-124.512,12.207,-59.082,-125.977,-54.688
1738232994.013,-115.723,11.230,-57.617,-120.605,-290.527
1738232994.017,-96.680,7.324,-54.199,-103.027,-239.746
1738232994.021,-75.195,-1.465,-51.270,-81.055,-64.941
1738232994.025,-84.473,-4.395,-53.711,-82.520,32.227
1738232994.028,-88.379,-9.766,-67.383,-75.684,-188.477
1738232994.032,-76.172,-15.137,-61.523,-66.406,-132.812
1738232994.036,-60.547,-11.230,-54.199,-76.172,326.660
1738232994.040,-58.594,-11.230,-57.617,-77.637,61.523
1738232994.044,-62.012,-14.648,-59.570,-57.129,-217.773
1738232994.060,-56.152,-9.766,-58.105,-42.969,-97.168
1738232994.064,-63.477,-7.324,-55.176,-36.133,-80.078
1738232994.068,-44.434,-16.113,-51.270,-38.574,-221.680
1738232994.072,-32.227,-16.113,-53.223,-51.270,-291.992
1738232994.076,-61.035,-14.160,-50.293,-44.434,-33.691
1738232994.080,-77.637,-15.137,-45.410,-33.691,180.664
1738232994.084,-80.078,-21.973,-46.387,-34.668,-6.348
1738232994.087,-71.777,-30.762,-48.340,-38.574,-133.301
1738232994.091,-51.758,-36.621,-46.875,-41.016,160.645
1738232994.095,-60.059,-33.691,-48.828,-34.180,90.820
1738232994.099,-68.848,-28.320,-44.922,-20.508,-270.020
1738232994.103,-52.734,-31.250,-36.621,-4.395,-120.117
1738232994.094,-51.758,-41.016,-39.062,3.418,489.258
1738232994.098,-58.594,-35.645,-36.621,-8.301,325.684
1738232994.102,-69.336,-28.809,-34.668,-20.996,-238.770
1738232994.106,-74.707,-22.949,-39.062,-20.996,-237.793
1738232994.110,-69.336,-19.531,-34.668,-9.766,-68.359
1738232994.114,-53.711,-23.926,-25.879,-0.488,5.371
1738232994.118,-37.109,-25.391,-30.273,-27.832,-96.680
1738232994.121,-42.969,-34.180,-32.227,-37.598,-136.719
1738232994.125,-52.246,-34.668,-28.809,-22.949,-115.234
1738232994.129,-51.270,-30.762,-31.738,-11.230,-166.992
1738232994.133,-46.875,-23.438,-28.809,-4.395,-206.543
1738232994.137,-33.203,-21.973,-18.555,-6.348,-87.891
1738232994.151,-33.203,-32.715,-21.484,-9.277,413.574
1738232994.155,-55.664,-31.250,-30.273,-0.488,113.770
1738232994.159,-65.430,-31.738,-26.855,4.395,-249.023
1738232994.163,-64.941,-39.062,-20.996,-7.324,14.160
1738232994.167,-42.969,-29.785,-22.949,-6.836,20.020
1738232994.171,-36.133,-28.320,-36.621,-8.301,-107.910
1738232994.175,-45.410,-41.016,-35.156,-1.953,-103.027
1738232994.178,-34.668,-44.922,-26.855,32.715,188.965
1738232994.182,-60.547,-30.762,-23.438,15.137,380.371
1738232994.186,-88.867,-27.344,-20.996,-48.340,-93.750
1738232994.190,-75.684,-47.363,-20.996,-59.570,-312.500
1738232994.194,-59.570,-50.293,-24.414,-27.832,-93.750
1738232994.179,-53.223,-40.527,-30.762,-4.883,-31.250
1738232994.183,-40.527,-44.434,-36.133,-3.906,-172.852
1738232994.187,-35.156,-55.176,-27.344,-5.371,-151.855
1738232994.191,-46.387,-58.594,-28.320,-20.508,-72.266
1738232994.195,-49.805,-55.176,-31.250,-15.625,-163.574
1738232994.199,-41.016,-45.898,-29.297,-1.953,-123.047
1738232994.203,-54.199,-47.363,-25.391,-6.836,34.180
1738232994.206,-65.430,-51.270,-21.484,-21.973,112.793
1738232994.210,-67.383,-49.805,-30.273,-27.344,-61.035
1738232994.214,-81.055,-58.105,-34.180,-15.137,-272.461
1738232994.218,-79.590,-58.105,-21.973,6.836,-204.590
1738232994.222,-64.941,-54.688,-13.672,23.438,473.633
1738232994.224,-59.570,-52.734,-22.949,-10.254,592.285
1738232994.228,-49.316,-47.852,-20.996,-51.758,-102.051
1738232994.232,-44.922,-50.781,-15.625,-47.852,-235.840
1738232994.236,-58.594,-43.457,-18.555,-22.949,-164.551
1738232994.240,-61.523,-36.621,-19.043,-23.438,-251.465
1738232994.244,-53.711,-36.621,-20.508,-29.297,-134.766
1738232994.248,-72.266,-45.410,-20.508,-27.344,119.629
1738232994.251,-79.102,-41.504,-25.879,-25.879,-58.594
1738232994.255,-75.684,-38.574,-24.414,-24.902,-197.754
1738232994.259,-73.242,-42.969,-26.855,-24.414,-159.180
1738232994.263,-53.223,-39.551,-25.879,-16.602,185.059
1738232994.267,-52.246,-37.598,-25.391,-20.996,324.707
1738232994.268,-54.688,-31.250,-29.785,-18.555,-194.824
1738232994.272,-67.383,-36.133,-30.762,0.977,-289.062
1738232994.276,-76.660,-41.016,-32.715,-15.137,98.633
1738232994.280,-68.848,-37.598,-41.016,-36.621,-82.031
1738232994.284,-60.059,-38.574,-42.480,-47.363,-373.047
1738232994.288,-66.406,-35.645,-33.203,-52.246,-121.094
1738232994.292,-79.102,-41.016,-26.855,-29.297,290.527
1738232994.295,-66.406,-49.805,-30.762,2.441,4.395
1738232994.299,-37.598,-45.410,-37.598,4.883,-306.152
1738232994.303,-21.484,-29.785,-39.062,-36.133,-200.684
1738232994.307,-42.480,-12.695,-39.551,-49.805,-68.848
1738232994.311,-62.988,-10.254,-40.527,-41.992,-137.695
1738232994.328,-55.664,-21.973,-49.805,-25.879,-257.324
1738232994.332,-50.781,-20.996,-57.617,-17.578,-100.098
1738232994.336,-36.621,-11.719,-59.570,-41.504,-52.246
1738232994.340,-34.668,-5.859,-51.270,-17.090,-283.203
1738232994.344,-43.457,5.371,-44.922,5.371,-279.297
1738232994.348,-37.598,16.113,-49.316,-3.906,140.137
1738232994.352,-23.438,0.000,-47.363,0.977,182.129
1738232994.355,-29.785,-8.789,-44.434,-20.508,-176.270
1738232994.359,-14.648,0.000,-51.758,-15.625,-240.723
1738232994.363,-17.578,12.207,-48.340,-5.859,139.160
1738232994.367,-6.348,10.254,-44.434,5.859,119.629
1738232994.371,22.461,12.695,-47.363,-5.371,-186.035
1738232994.373,35.645,14.648,-56.152,-44.922,29.785
1738232994.377,41.992,4.883,-51.758,-41.016,481.445
1738232994.381,8.789,19.531,-45.410,-26.367,320.312
1738232994.385,-4.395,12.207,-43.457,1.953,-183.105
1738232994.389,5.859,-2.930,-37.109,4.395,-159.668
1738232994.393,4.395,7.324,-43.457,-23.438,18.555
1738232994.397,6.348,15.625,-56.152,-25.391,-99.609
1738232994.400,-6.836,5.371,-50.781,-14.160,-272.949
1738232994.404,-26.367,8.301,-40.039,-10.742,-128.906
1738232994.408,-39.551,-4.395,-36.621,1.465,378.906
1738232994.412,-45.898,-21.484,-31.738,-17.578,45.898
1738232994.416,-51.758,-13.672,-29.297,-30.762,-341.309
1738232994.418,-51.270,4.883,-37.598,-26.367,-219.238
1738232994.422,-50.293,-10.254,-33.203,-18.066,-152.832
1738232994.426,-40.039,-18.555,-24.902,-7.324,-167.480
1738232994.430,-29.785,-12.207,-29.297,-12.695,-176.270
1738232994.434,-20.996,-32.227,-23.926,-22.949,62.500
1738232994.438,-50.781,-38.574,-21.484,-20.996,86.426
1738232994.442,-74.219,-25.879,-24.414,-16.113,-89.355
1738232994.445,-66.406,-39.551,-26.855,-20.020,-119.629
1738232994.449,-56.641,-48.340,-26.367,-11.230,179.199
1738232994.453,-61.035,-43.945,-28.320,-27.832,180.176
1738232994.457,-65.918,-53.711,-26.855,-56.641,-301.270
1738232994.461,-73.730,-54.199,-22.949,-35.156,-197.754
1738232994.464,-75.195,-48.828,-22.461,-22.461,115.723
1738232994.468,-71.289,-43.457,-14.648,-34.668,-41.992
1738232994.472,-49.805,-43.945,-21.484,-41.992,-284.668
1738232994.476,-46.387,-43.945,-27.832,-41.992,-250.977
1738232994.480,-67.871,-38.086,-24.902,-24.414,-5.859
1738232994.484,-62.988,-35.156,-15.137,-19.531,87.402
1738232994.488,-43.457,-30.762,-7.324,-32.715,94.727
1738232994.491,-59.570,-35.156,-6.836,-45.410,35.645
1738232994.495,-72.754,-40.039,-4.395,-30.762,373.535
1738232994.499,-80.078,-31.738,-8.789,-16.113,248.047
1738232994.503,-74.219,-33.203,-15.625,-17.090,-124.512
1738232994.507,-49.316,-34.668,-17.578,-39.551,-51.270
1738232994.510,-42.480,-35.645,-12.695,-66.406,-101.562
1738232994.514,-41.504,-20.508,-8.789,-52.246,-235.352
1738232994.518,-43.457,-18.555,-9.277,-22.461,-196.289
1738232994.522,-47.363,-29.297,-15.137,-17.578,5.371
1738232994.553,-74.707,-36.133,-29.785,-62.012,-14.648
1738232994.557,-75.684,-33.691,-28.809,-53.711,-200.684
1738232994.561,-53.711,-30.273,-24.414,-34.180,-51.270
1738232994.565,-59.082,-28.809,-29.785,-53.223,21.484
1738232994.569,-62.988,-29.785,-38.574,-66.406,-218.750
1738232994.573,-62.012,-36.621,-41.504,-30.273,-134.766
1738232994.577,-63.477,-43.945,-42.480,-12.207,93.750
1738232994.580,-54.199,-49.805,-45.410,-17.578,554.688
1738232994.584,-54.199,-49.316,-52.246,-52.734,492.188
1738232994.588,-55.176,-41.504,-50.781,-64.453,-162.109
1738232994.592,-62.012,-39.551,-41.504,-32.715,-253.418
1738232994.596,-79.590,-37.598,-46.875,-27.344,-51.270
1738232994.598,-80.566,-36.621,-52.734,-36.133,-97.168
1738232994.602,-74.707,-29.785,-47.363,-45.898,-239.258
1738232994.606,-63.477,-34.180,-39.551,-57.617,-118.164
1738232994.610,-62.988,-38.574,-40.039,-33.203,-69.336
1738232994.614,-68.359,-28.809,-38.574,-3.418,-200.195
1738232994.618,-78.613,-31.738,-36.133,-1.465,-95.215
1738232994.622,-53.223,-33.203,-46.387,-4.883,379.883
1738232994.625,-37.109,-35.645,-46.875,-10.254,271.973
1738232994.629,-73.730,-45.410,-45.410,-10.254,-306.152
1738232994.633,-83.496,-39.551,-48.828,-8.789,-222.656
1738232994.637,-68.359,-25.879,-50.293,-12.695,-42.480
1738232994.641,-55.664,-26.855,-50.781,-9.766,-28.809
1738232994.673,-48.340,-32.715,-45.410,-22.461,-171.387
1738232994.677,-55.176,-34.668,-38.086,-41.992,-222.168
1738232994.681,-71.289,-40.527,-35.645,-24.414,296.875
1738232994.685,-90.820,-31.738,-37.598,-12.207,231.934
1738232994.689,-65.430,-27.832,-34.668,-12.207,-188.477
1738232994.693,-28.809,-35.156,-32.227,-15.625,-44.434
1738232994.697,-49.805,-36.621,-28.320,-22.461,403.809
1738232994.700,-68.848,-29.785,-29.297,-12.207,87.891
1738232994.704,-66.895,-30.762,-39.062,-2.441,-241.699
1738232994.708,-64.941,-34.180,-37.598,-23.926,-93.750
1738232994.712,-50.293,-28.320,-31.738,-52.246,-148.438
1738232994.716,-54.688,-25.391,-34.668,-46.387,-297.852
1738232994.703,-71.777,-28.809,-40.527,-23.438,-232.422
1738232994.707,-54.688,-30.762,-48.340,-13.184,-56.641
1738232994.711,-43.945,-28.320,-53.711,-22.461,-36.133
1738232994.715,-40.039,-38.086,-56.152,-41.504,-244.141
1738232994.719,-36.133,-43.945,-60.059,-38.086,-184.570
1738232994.723,-51.758,-34.180,-52.246,-6.348,231.445
1738232994.727,-57.617,-26.367,-47.852,8.301,168.945
1738232994.730,-62.012,-27.344,-50.293,-4.395,-108.398
1738232994.734,-56.641,-25.879,-45.410,-20.508,-202.148
1738232994.738,-33.203,-32.227,-47.363,-27.344,81.543
1738232994.742,-44.922,-37.598,-60.547,-25.879,50.293
1738232994.746,-78.125,-44.922,-63.965,-11.230,-90.332
1738232994.748,-63.965,-42.969,-63.477,-7.324,113.770
1738232994.752,-31.250,-29.297,-64.453,-24.414,437.500
1738232994.756,-8.301,-41.504,-62.012,-17.578,447.754
1738232994.760,-5.371,-34.180,-61.523,16.602,-137.695
1738232994.764,-39.062,-13.672,-75.684,-3.906,-130.859
1738232994.768,-74.707,-13.184,-78.613,-40.527,159.668
1738232994.772,-72.754,-22.949,-78.613,-59.570,-13.184
1738232994.775,-58.594,-26.367,-85.449,-70.312,-126.465
1738232994.779,-86.914,-19.043,-81.543,-69.824,-27.832
1738232994.783,-80.566,-21.484,-79.102,-42.480,435.059
1738232994.787,-47.363,-12.207,-83.984,-35.645,229.980
1738232994.791,-25.879,-0.977,-79.102,-47.363,-280.273
1738232994.793,-11.719,-9.766,-77.637,-66.895,-292.480
1738232994.797,-77.148,-8.301,-85.449,-98.145,-277.832
1738232994.801,-92.773,4.883,-77.637,-71.777,-188.477
1738232994.805,-78.125,18.555,-69.336,-44.922,-115.723
1738232994.809,-82.520,19.531,-74.219,-74.219,-104.004
1738232994.813,-62.988,0.488,-70.312,-89.355,-83.496
1738232994.817,-79.102,-10.742,-55.664,-79.102,-140.625
1738232994.820,-73.242,6.836,-56.152,-55.176,-189.453
1738232994.824,-57.129,9.766,-56.641,-53.223,205.078
1738232994.828,-55.176,7.812,-48.340,-66.895,326.172
1738232994.832,-47.852,-7.324,-44.434,-66.406,-273.438
1738232994.836,-44.434,-14.160,-37.598,-51.758,-301.758
1738232994.838,-56.152,-5.859,-28.809,-20.508,450.684
1738232994.842,-72.754,-9.277,-31.738,-24.414,333.984
1738232994.846,-56.641,-12.695,-38.574,-51.270,-201.172
1738232994.850,-23.926,-17.578,-34.180,-68.848,-276.367
1738232994.854,-2.441,-16.113,-19.531,-47.363,-277.344
1738232994.858,-49.805,-20.508,-15.137,-0.488,-67.871
1738232994.862,-97.168,-25.391,-13.184,5.371,20.020
1738232994.865,-62.012,-16.602,-6.836,-27.344,-42.480
1738232994.869,-16.602,-17.090,-6.836,-41.504,250.488
1738232994.873,-40.527,-20.508,-5.859,-32.227,-73.242
1738232994.877,-48.340,-27.344,-6.836,-9.766,-364.746
1738232994.881,-4.883,-28.809,-7.812,11.719,3.418
1738232994.883,-5.371,-15.137,-2.930,-15.137,67.383
1738232994.887,-20.996,-20.508,-0.977,-47.363,-293.945
1738232994.891,-24.414,-32.715,-1.953,-20.020,-429.688
1738232994.895,-50.781,-27.832,-7.324,14.648,-190.430
1738232994.899,-51.270,-21.973,-19.531,7.812,-96.680
1738232994.903,-36.133,-24.414,-17.090,-8.789,-121.582
1738232994.907,-41.992,-31.738,-14.648,-44.434,-95.215
1738232994.910,-2.930,-31.738,-25.879,-55.176,76.172
1738232994.914,9.766,-19.043,-21.973,-5.859,157.715
1738232994.918,-28.809,-11.230,-15.137,39.551,-125.000
1738232994.922,-36.133,-22.949,-16.602,6.836,-175.293
1738232994.926,2.441,-33.691,-18.555,-54.199,-193.848
1738232994.929,-32.227,-26.855,-19.531,-32.715,-231.445
1738232994.933,-65.430,-23.438,-9.766,31.250,-213.379
1738232994.937,-48.340,-29.297,-9.766,56.641,-36.621
1738232994.941,-38.574,-35.645,-18.555,20.508,437.012
1738232994.945,-46.875,-28.320,-26.855,-21.484,177.246
1738232994.949,-31.738,-16.113,-35.156,4.883,-219.238
1738232994.953,-34.668,-21.484,-30.762,-12.207,56.152
1738232994.956,-64.453,-15.137,-35.156,-24.902,464.844
1738232994.960,-64.453,2.441,-35.156,-1.953,156.738
1738232994.964,-47.852,-17.090,-27.832,-48.340,-260.742
1738232994.968,-63.477,-20.020,-31.738,-54.199,-301.270
1738232994.972,-48.828,24.414,-30.273,2.930,-208.984
1738232994.973,-43.457,35.156,-37.109,-10.742,-131.836
1738232994.977,-84.473,5.371,-41.992,-67.383,-156.738
1738232994.981,-81.543,-1.465,-29.297,-60.059,-152.344
1738232994.985,-59.082,-9.766,-35.156,-50.781,-229.004
1738232994.989,-44.922,-27.832,-49.805,-87.891,-195.312
1738232994.993,-29.297,-29.785,-41.992,-71.289,-46.875
1738232994.997,-53.223,-24.902,-29.297,-39.062,372.559
1738232995.000,-43.457,-42.480,-16.602,-55.664,621.582
1738232995.004,-31.738,-50.293,-1.953,-33.691,-11.719
1738232995.008,-6.348,-36.621,5.859,-0.977,-261.230
1738232995.012,-5.859,-35.645,0.488,-44.922,-74.219
1738232995.016,-53.711,-38.086,-0.977,-65.918,-35.645
1738232995.033,-55.664,-28.809,17.090,-38.086,-72.754
1738232995.037,-49.805,-28.320,26.367,-39.062,-224.609
1738232995.041,-76.660,-41.992,25.879,-40.527,76.660
1738232995.045,-90.332,-46.387,25.879,-15.625,88.379
1738232995.049,-43.945,-50.781,28.809,-15.137,-99.609
1738232995.053,-12.695,-85.938,28.320,-24.414,51.758
1738232995.057,-24.902,-120.117,25.879,-24.902,190.430
1738232995.060,-58.105,-94.727,18.555,-32.715,23.926
1738232995.064,-50.293,-68.359,7.812,26.855,-198.242
1738232995.068,-22.461,-62.012,6.348,63.477,-25.391
1738232995.072,-46.387,-45.410,-0.488,-20.020,305.664
1738232995.076,-57.617,-46.875,-7.812,-37.598,-169.434
1738232995.078,-31.738,-64.941,-7.812,-25.879,-450.684
1738232995.082,-9.277,-70.801,-13.184,-23.926,-148.438
1738232995.086,-33.691,-74.219,-13.672,17.090,-54.199
1738232995.090,-47.852,-72.266,-17.578,12.695,-170.898
1738232995.094,-21.484,-71.289,-20.020,-45.898,-264.648
1738232995.098,-42.480,-83.984,-17.578,-30.273,-119.141
1738232995.102,-77.637,-87.402,-18.555,10.742,6.348
1738232995.105,-59.082,-78.613,-27.344,0.488,13.672
1738232995.109,-39.551,-73.730,-39.062,-11.230,-67.383
1738232995.113,11.719,-74.707,-34.180,-40.039,229.980
1738232995.117,35.156,-75.195,-22.461,4.883,458.496
1738232995.121,-15.625,-61.035,-40.039,62.988,-33.203
1738232995.123,-34.180,-48.340,-54.199,-16.602,10.742
1738232995.127,-50.293,-60.547,-38.086,-16.113,353.027
1738232995.131,-54.688,-68.848,-25.391,15.137,-41.992
1738232995.135,-71.777,-43.945,-18.066,0.000,-424.316
1738232995.139,-75.195,-20.508,-30.762,-12.695,-255.371
1738232995.143,-46.387,-21.484,-48.340,-9.277,111.328
1738232995.147,-59.082,-33.203,-45.410,-20.020,189.941
1738232995.150,-38.574,-44.434,-45.898,-68.359,-180.176
1738232995.154,-23.926,-30.273,-42.480,-43.945,-278.809
1738232995.158,-74.219,-21.484,-32.227,-7.812,270.020
1738232995.162,-106.934,-31.250,-34.668,-18.066,82.520
1738232995.166,-97.168,-47.852,-36.133,-30.273,-149.902
1738232995.168,-63.965,-51.758,-38.574,-44.434,22.461
1738232995.172,-34.180,-50.293,-51.270,-75.684,-161.133
1738232995.176,-47.363,-62.988,-51.270,-35.156,-280.762
1738232995.180,-77.148,-74.219,-40.039,39.551,-132.324
1738232995.184,-83.496,-69.336,-40.527,-9.277,-20.996
1738232995.188,-34.668,-62.012,-41.504,-53.711,-83.008
1738232995.192,24.902,-57.129,-25.391,-31.738,-154.785
1738232995.195,-15.137,-70.312,-17.090,-13.184,-177.246
1738232995.199,-63.477,-74.707,-20.996,0.488,219.727
1738232995.203,-92.773,-53.711,-30.762,-9.277,340.332
1738232995.207,-100.586,-52.246,-27.832,-44.922,-197.754
1738232995.211,-59.570,-52.734,-23.438,-44.434,-326.660
1738232995.214,-17.090,-50.781,-25.391,-5.371,0.977
1738232995.218,24.902,-56.152,-20.020,8.789,6.348
1738232995.222,-21.484,-60.547,-3.906,38.574,66.895
1738232995.226,-53.711,-40.527,6.348,2.930,150.391
1738232995.230,-24.902,-25.879,-1.953,-77.637,192.871
1738232995.234,-65.430,-30.762,-9.766,-20.508,38.574
1738232995.238,-105.469,-30.762,-5.371,26.367,-94.238
1738232995.241,-100.586,-25.879,-1.953,2.930,82.520
1738232995.245,-72.266,-27.344,-1.465,-38.574,384.766
1738232995.249,-44.434,-26.367,2.930,-48.340,-67.383
1738232995.253,-42.480,-26.855,17.578,-30.762,-391.113
1738232995.257,-50.781,-31.738,23.926,-12.207,-126.953
1738232995.273,-43.945,-28.809,19.043,7.812,-26.367
1738232995.277,-26.855,-11.719,18.555,-12.695,-144.043
1738232995.281,-14.648,-7.812,17.090,-43.945,-349.121
1738232995.285,-8.301,-12.695,12.207,-31.250,-266.602
1738232995.289,-28.809,-0.977,6.348,11.230,-67.871
1738232995.293,-59.082,-4.883,0.000,1.953,116.211
1738232995.297,-71.777,-3.906,2.441,-36.133,113.281
1738232995.300,-33.203,22.949,7.324,-59.082,192.383
1738232995.304,-42.480,20.020,7.812,-41.016,308.594
1738232995.308,-97.656,11.719,15.625,9.277,-92.285
1738232995.312,-104.980,9.766,22.461,8.789,-135.254
1738232995.316,-75.684,0.977,23.926,-34.668,-4.395
1738232995.303,-44.922,-5.859,23.926,-49.316,-185.059
1738232995.307,-55.176,-14.648,14.648,-22.461,-402.344
1738232995.311,-68.848,-19.531,2.441,-15.625,-212.402
1738232995.315,-63.477,-9.766,8.301,-6.836,306.152
1738232995.319,-59.570,3.418,7.324,-8.789,104.980
1738232995.323,-43.945,-1.953,-2.441,-32.227,-175.293
1738232995.327,-42.969,-3.906,-12.207,-46.875,-86.426
1738232995.330,-51.270,-2.930,-13.672,-18.066,105.469
1738232995.334,-47.852,-9.766,-8.301,3.418,61.523
1738232995.338,-44.922,-3.906,-2.930,-1.953,-151.855
1738232995.342,-34.668,-8.789,0.977,-8.789,-167.969
1738232995.346,-35.645,-14.648,-5.859,-15.625,232.422
1738232995.348,-68.359,-2.930,-18.066,-24.414,65.430
1738232995.352,-69.336,5.371,-27.344,-10.742,-181.152
1738232995.356,-15.137,-10.742,-36.621,20.508,-44.434
1738232995.360,-13.184,-16.113,-27.344,-4.883,-157.227
1738232995.364,-59.082,24.902,-24.414,-27.344,-359.863
1738232995.368,-96.191,36.133,-44.922,-21.484,-246.582
1738232995.372,-114.258,19.531,-31.250,-22.461,306.152
1738232995.375,-128.418,11.719,-1.465,-58.105,464.355
1738232995.379,-148.926,13.184,21.484,-117.676,-146.484
1738232995.383,-173.828,28.320,9.766,-151.855,-312.988
1738232995.387,-206.055,20.508,-28.320,-152.344,99.121
1738232995.391,-223.145,25.391,6.348,-143.555,163.086
1738232995.393,-240.723,44.922,34.668,-140.137,107.422
1738232995.397,-240.723,28.809,35.156,-197.266,-62.012
1738232995.401,-237.305,6.836,56.641,-233.398,3.906
1738232995.405,-262.207,6.836,57.617,-194.824,-125.000
1738232995.409,-295.898,20.996,45.898,-187.500,-237.305
1738232995.413,-294.434,35.645,62.988,-206.543,135.254
1738232995.417,-270.508,35.645,65.918,-221.680,405.762
1738232995.420,-271.484,37.109,43.457,-234.375,-166.504
1738232995.424,-269.531,65.430,57.129,-215.332,-409.668
1738232995.428,-272.461,89.355,68.359,-173.828,-78.613
1738232995.432,-271.484,64.453,65.430,-162.598,101.074
1738232995.436,-232.422,51.270,74.219,-201.660,-94.727
1738232995.439,-208.496,81.543,67.383,-242.676,-249.512
1738232995.443,-238.770,128.906,62.012,-222.168,-116.211
1738232995.447,-254.883,149.902,60.059,-177.734,-0.977
1738232995.451,-236.328,162.109,61.035,-157.227,-74.219
1738232995.455,-249.512,163.574,63.477,-168.945,-117.188
1738232995.459,-231.934,140.625,67.383,-178.711,26.367
1738232995.463,-208.984,118.652,71.289,-161.133,25.879
1738232995.466,-230.957,94.727,69.824,-136.230,-136.230
1738232995.470,-234.863,67.383,60.547,-122.559,-140.137
1738232995.474,-206.055,48.340,54.199,-124.512,226.074
1738232995.478,-188.477,56.641,51.758,-162.109,97.656
1738232995.482,-205.078,65.918,53.223,-165.527,-252.930
1738232995.498,-220.703,61.035,49.805,-124.023,-39.062
1738232995.502,-213.867,48.340,42.480,-122.559,291.992
1738232995.506,-199.219,41.992,40.527,-130.859,208.984
1738232995.510,-174.805,54.199,40.527,-153.809,-146.484
1738232995.514,-165.527,63.965,41.992,-147.949,-169.434
1738232995.518,-188.477,66.895,45.410,-105.469,384.277
1738232995.522,-188.477,69.336,40.039,-97.656,288.574
1738232995.525,-183.594,62.500,26.367,-129.883,-190.430
1738232995.529,-167.969,53.711,30.273,-132.324,-186.035
1738232995.533,-153.809,48.828,32.715,-105.469,132.324
1738232995.537,-169.434,47.363,27.344,-92.773,-63.477
1738232995.541,-136.230,50.781,26.367,-70.312,-191.406
1738232995.543,-144.043,45.410,29.785,-91.797,-21.973
1738232995.547,-122.070,29.297,30.273,-106.445,-89.355
1738232995.551,-111.816,22.461,27.832,-95.215,-248.047
1738232995.555,-136.230,16.113,33.203,-92.773,-213.867
1738232995.603,-63.477,-31.250,22.949,-30.273,370.605
1738232995.607,-67.871,-34.180,34.180,-9.277,-3.418
1738232995.611,-71.777,-41.504,20.508,-10.742,-248.047
1738232995.615,-52.246,-44.434,14.648,-3.906,-99.121
1738232995.619,-25.391,-35.645,9.277,-18.066,-33.203
1738232995.623,-38.086,-16.602,0.000,-39.551,40.039
1738232995.627,-40.527,-4.395,-7.324,-31.250,29.785
1738232995.630,-40.039,-8.301,-12.695,-39.062,35.645
1738232995.634,-44.434,-8.789,-9.766,-41.992,520.508
1738232995.638,-34.180,5.859,-11.230,-46.387,268.555
1738232995.642,-53.223,0.977,-17.090,-70.312,-269.043
1738232995.646,-60.547,-13.672,-17.578,-45.410,-153.809
1738232995.633,-44.922,-27.344,-26.367,-7.324,-89.355
1738232995.637,-33.203,-42.480,-46.875,2.930,-216.309
1738232995.641,-12.207,-49.805,-50.781,-1.953,-108.887
1738232995.645,23.438,-53.223,-40.527,7.812,-3.906
1738232995.649,41.016,-63.477,-37.598,28.809,-72.266
1738232995.653,38.574,-80.078,-47.852,41.992,-71.777
1738232995.657,26.855,-82.520,-65.430,45.410,-17.578
1738232995.660,44.434,-91.797,-79.102,57.129,105.469
1738232995.664,63.477,-97.168,-91.309,57.617,-9.277
1738232995.668,67.383,-91.309,-100.586,72.754,-158.203
1738232995.672,91.309,-95.703,-106.934,92.773,-98.633
1738232995.676,104.492,-97.168,-111.816,90.820,341.797
1738232995.680,104.492,-92.285,-124.023,93.750,784.180
1738232995.684,95.703,-83.008,-132.812,83.984,204.102
1738232995.688,103.027,-81.055,-133.789,79.102,-239.258
1738232995.692,107.910,-79.102,-138.184,92.773,-171.875
1738232995.696,114.258,-68.848,-139.160,98.633,-211.426
1738232995.700,125.488,-63.965,-144.043,100.586,-135.254
1738232995.704,135.254,-69.336,-149.902,104.004,103.516
1738232995.707,123.535,-72.754,-154.785,103.027,396.484
1738232995.711,104.980,-62.012,-161.621,99.609,31.250
1738232995.715,123.047,-59.082,-157.227,124.512,-319.824
1738232995.719,135.254,-63.965,-157.227,127.930,-180.664
1738232995.723,137.695,-62.500,-154.785,125.488,-127.930
1738232995.739,121.094,-53.223,-150.391,122.070,-162.598
1738232995.743,123.047,-47.363,-158.203,109.863,-180.664
1738232995.747,129.883,-50.781,-162.598,105.469,-89.844
1738232995.751,120.605,-47.852,-162.109,93.750,-72.754
1738232995.755,123.535,-43.457,-160.645,94.238,-144.043
1738232995.759,114.258,-43.457,-166.992,89.355,-53.223
1738232995.763,97.656,-49.316,-180.176,87.891,219.727
1738232995.766,95.215,-53.223,-180.664,81.055,501.465
1738232995.770,102.539,-52.734,-175.781,70.801,39.062
1738232995.774,112.305,-51.270,-169.922,80.566,-237.793
1738232995.778,95.215,-40.527,-162.109,70.312,-121.582
1738232995.782,97.656,-36.621,-161.621,59.082,-118.164
1738232995.768,95.703,-41.016,-162.598,66.406,-24.414
1738232995.772,77.148,-41.992,-158.691,62.988,-91.309
1738232995.776,70.801,-45.410,-152.832,62.012,161.133
1738232995.780,61.035,-41.504,-147.949,55.176,95.703
1738232995.784,63.477,-31.738,-142.578,43.457,-239.258
1738232995.788,67.383,-39.551,-137.695,45.410,36.133
1738232995.792,56.641,-46.387,-136.230,42.969,246.582
1738232995.795,51.270,-40.527,-139.648,40.039,-36.621
1738232995.799,62.012,-37.109,-132.324,46.875,-198.242
1738232995.803,56.641,-32.715,-112.793,49.805,-114.746
1738232995.807,59.570,-32.227,-105.469,52.246,381.836
1738232995.811,82.031,-23.926,-120.117,37.598,171.875
1738232995.828,88.379,-16.113,-123.535,53.711,-221.191
1738232995.832,47.852,-23.438,-112.793,41.504,-50.293
1738232995.836,19.043,-35.156,-108.887,-2.441,-70.801
1738232995.840,2.441,-40.527,-98.145,-4.883,-249.023
1738232995.844,7.812,-41.016,-84.473,17.578,-207.520
1738232995.848,27.832,-44.434,-79.590,27.832,68.359
1738232995.852,14.648,-44.434,-84.473,-11.719,140.625
1738232995.855,13.672,-47.852,-93.750,-41.016,57.129
1738232995.859,23.438,-49.316,-92.285,2.441,-15.625
1738232995.863,32.227,-54.688,-85.938,16.602,225.586
1738232995.867,15.625,-60.059,-90.820,-10.254,342.285
1738232995.871,5.859,-52.734,-91.797,-12.207,-69.824
1738232995.873,20.996,-55.176,-86.426,-19.531,-104.004
1738232995.877,19.043,-64.453,-83.496,-20.996,187.012
1738232995.881,21.973,-64.941,-85.449,-5.859,1.465
1738232995.885,13.184,-59.082,-84.961,4.883,-235.352
1738232995.889,-10.742,-59.570,-76.172,-3.418,-109.863
1738232995.893,-3.906,-65.430,-69.336,-24.414,39.062
1738232995.897,2.930,-63.477,-80.078,-22.461,-51.758
1738232995.900,-13.672,-62.012,-80.566,-10.742,-154.785
1738232995.904,-13.184,-65.918,-66.895,-14.648,32.227
1738232995.908,-5.859,-65.430,-64.941,-4.395,468.262
1738232995.912,-10.254,-57.617,-67.871,-15.625,168.457
1738232995.916,-6.348,-54.199,-64.941,-27.344,-306.641
1738232995.919,-18.066,-50.781,-65.430,-8.789,-218.262
1738232995.923,-16.602,-43.457,-67.383,-5.859,-180.176
1738232995.927,5.859,-48.340,-73.242,-20.020,-209.473
1738232995.931,-8.301,-54.199,-73.730,-27.832,-195.801
1738232995.935,-23.438,-57.617,-73.730,-21.973,-147.949
1738232995.939,-13.672,-82.031,-73.242,-18.555,-44.922
1738232995.943,-9.766,-79.102,-52.734,-31.738,49.805
1738232995.946,-26.367,-41.504,-50.781,-28.809,-83.496
1738232995.950,-26.367,-44.922,-56.641,-25.879,158.203
1738232995.954,-24.414,-57.617,-57.129,-41.016,243.652
1738232995.958,-18.066,-50.781,-58.105,-46.387,-87.402
1738232995.962,9.766,-49.805,-48.828,-45.410,-125.977
1738232995.964,0.977,-53.223,-48.340,-40.527,284.668
1738232995.968,-4.883,-51.758,-61.035,-38.574,247.559
1738232995.972,-1.953,-55.176,-50.293,-27.832,-223.633
1738232995.976,-18.066,-55.176,-42.480,0.000,-262.207
1738232995.980,-5.371,-58.105,-50.781,-13.184,-166.016
1738232995.984,-21.484,-60.059,-46.875,-36.133,-4.395
1738232995.988,-35.645,-54.199,-35.156,-35.156,-88.867
1738232995.991,-26.855,-48.828,-36.621,-36.133,-181.641
1738232995.995,-22.461,-47.852,-42.969,-30.762,264.648
1738232995.999,-12.207,-51.758,-46.387,-24.414,50.781
1738232996.003,-15.625,-54.199,-44.922,-31.250,-294.922
1738232996.007,-29.297,-55.176,-46.387,-49.316,-156.738
1738232996.024,-44.922,-53.223,-43.457,-46.387,-164.062
1738232996.028,-54.688,-49.805,-45.898,-43.945,-230.469
1738232996.032,-50.293,-51.758,-52.246,-21.973,-278.809
1738232996.036,-44.434,-56.152,-50.293,-4.883,-75.195
1738232996.040,-47.363,-55.664,-52.734,-37.109,3.418
1738232996.044,-40.039,-57.129,-56.641,-56.641,-71.777
1738232996.048,-31.250,-54.688,-48.340,-42.969,-23.438
1738232996.051,-32.227,-51.270,-43.945,-29.297,215.820
1738232996.055,-37.598,-52.734,-47.852,-38.086,294.922
1738232996.059,-38.086,-46.387,-43.945,-65.918,-102.539
1738232996.063,-29.785,-42.480,-46.875,-69.336,-251.953
1738232996.067,-24.414,-52.246,-42.969,-58.594,85.938
1738232996.053,-19.531,-54.199,-38.574,-53.223,84.473
1738232996.057,-17.090,-52.734,-49.316,-40.527,-216.797
1738232996.061,-33.691,-53.711,-45.898,-32.227,-117.188
1738232996.065,-35.645,-51.270,-39.062,-35.645,447.266
1738232996.069,-37.109,-45.410,-46.387,-57.617,318.848
1738232996.073,-27.344,-34.668,-42.969,-49.805,-173.828
1738232996.077,-29.297,-33.203,-40.527,-35.156,-61.035
1738232996.080,-35.645,-54.199,-42.480,-13.672,-0.488
1738232996.084,16.113,-53.711,-40.039,17.090,-154.297
1738232996.088,14.160,-30.762,-49.805,-14.648,-340.820
1738232996.092,-34.180,-26.855,-52.734,-62.012,-175.781
1738232996.096,-32.227,-31.250,-54.199,-72.754,124.512
1738232996.128,-16.113,-35.156,-64.453,-49.805,-79.102
1738232996.132,-20.508,-25.879,-68.848,-47.363,-266.602
1738232996.136,-8.789,-20.508,-68.848,-46.387,-80.078
1738232996.140,10.742,-13.184,-79.102,-43.457,84.473
1738232996.144,3.418,-5.859,-82.031,-48.828,-155.762
1738232996.148,15.137,-8.301,-80.566,-44.922,-57.129
1738232996.152,6.348,-7.812,-81.055,-52.246,245.117
1738232996.155,2.441,-0.488,-78.125,-31.250,203.613
1738232996.159,0.000,-4.395,-78.613,-21.484,-164.062
1738232996.163,0.000,-9.277,-84.961,-27.832,-213.379
1738232996.167,24.414,-5.371,-89.355,-17.578,37.598
1738232996.171,24.414,-12.207,-87.891,-36.621,-25.391
1738232996.174,2.930,-21.484,-89.355,-43.457,-186.035
1738232996.178,9.277,-21.484,-94.727,-29.785,-174.316
1738232996.182,15.625,-21.973,-97.656,-22.461,-31.250
1738232996.186,1.953,-23.926,-98.145,-20.996,-90.332
1738232996.190,0.488,-23.438,-101.562,-32.715,-172.363
1738232996.194,13.672,-30.273,-102.539,-39.551,-8.789
1738232996.198,0.488,-36.621,-103.027,-22.949,491.211
1738232996.201,-19.531,-38.574,-114.258,-16.602,272.949
1738232996.205,-16.602,-42.969,-123.535,-36.133,-159.180
1738232996.209,-6.348,-46.387,-120.117,-45.410,-34.180
1738232996.213,-13.672,-53.223,-116.211,-40.039,224.121
1738232996.217,-24.414,-58.594,-126.953,-46.387,-71.289
1738232996.236,-20.020,-53.223,-125.977,-42.480,-344.238
1738232996.240,-7.324,-50.781,-117.676,-18.555,-41.016
1738232996.244,1.953,-55.176,-119.629,-25.879,185.059
1738232996.248,-2.930,-48.828,-119.141,-40.527,-156.738
1738232996.252,-9.766,-50.781,-112.793,-21.484,-282.715
1738232996.256,-19.043,-60.059,-109.375,-12.207,61.035
1738232996.260,-24.414,-59.570,-112.305,-11.719,75.195
1738232996.263,-9.277,-55.176,-110.352,-8.789,-137.695
1738232996.267,-11.230,-55.664,-109.863,-22.461,-300.781
1738232996.271,-15.625,-65.918,-112.793,-12.695,76.172
1738232996.275,-20.020,-64.453,-110.840,-23.926,522.949
1738232996.279,-32.227,-60.059,-106.934,-35.645,96.191
1738232996.242,-30.762,-67.383,-111.328,-37.598,-78.613
1738232996.246,-31.250,-71.777,-110.840,-48.828,271.973
1738232996.250,-35.156,-66.406,-104.492,-45.898,153.320
1738232996.254,-39.062,-59.082,-97.168,-35.645,-275.879
1738232996.258,-24.902,-55.664,-91.309,-25.879,-165.039
1738232996.262,-21.973,-64.453,-94.238,-35.156,181.152
1738232996.266,-38.574,-73.242,-95.215,-48.340,102.539
1738232996.269,-30.762,-66.895,-86.914,-35.645,-228.516
1738232996.273,-9.766,-61.523,-75.684,-16.602,-131.836
1738232996.277,-9.766,-62.012,-76.660,-4.883,312.988
1738232996.281,-20.996,-62.012,-84.473,-15.137,33.203
1738232996.285,-28.809,-66.406,-82.520,-33.203,-332.520
1738232996.295,-26.367,-65.430,-77.637,-37.109,-191.406
1738232996.299,-9.766,-59.082,-75.195,-34.668,88.867
1738232996.303,-5.371,-58.105,-70.801,-36.621,-129.395
1738232996.307,-14.160,-56.641,-63.965,-27.344,-320.312
1738232996.311,-20.020,-51.270,-55.664,-26.855,-24.902
1738232996.315,-14.160,-46.387,-54.199,-39.551,594.238
1738232996.319,-4.883,-41.016,-56.152,-27.832,772.461
1738232996.322,-5.371,-41.992,-57.617,-24.414,504.395
1738232996.326,-22.461,-39.551,-57.129,-29.785,174.805
1738232996.330,-32.715,-33.203,-59.570,-34.668,-125.000
1738232996.334,-28.320,-26.855,-58.594,-45.898,-413.086
1738232996.338,-27.344,-30.273,-53.223,-49.805,-333.984
1738232996.338,-20.508,-37.109,-54.688,-32.715,-50.293
1738232996.342,-20.020,-33.203,-62.012,-36.133,-170.898
1738232996.346,-20.996,-28.809,-61.523,-36.621,-374.023
1738232996.350,-13.672,-29.297,-49.805,-30.762,-232.422
1738232996.354,-14.160,-32.715,-37.109,-32.715,190.430
1738232996.358,-7.812,-25.879,-34.668,-33.691,46.875
1738232996.362,-0.977,-30.762,-40.527,-30.273,-182.617
1738232996.365,-7.812,-37.109,-36.133,-27.832,-131.836
1738232996.369,-19.043,-35.156,-29.297,-22.949,279.297
1738232996.373,-35.645,-41.504,-37.109,-27.832,92.285
1738232996.377,-24.414,-45.410,-37.598,-36.133,-340.332
1738232996.381,-18.066,-44.434,-31.738,-33.691,-206.543
1738232996.383,-26.855,-47.852,-31.250,-45.410,-152.344
1738232996.387,-31.738,-49.805,-34.668,-54.199,-282.715
1738232996.391,-35.645,-49.805,-37.109,-37.109,-319.824
1738232996.395,-36.621,-52.734,-34.180,-28.809,-191.406
1738232996.399,-22.461,-57.129,-31.738,-24.414,-147.949
1738232996.403,-28.320,-58.594,-28.809,-37.598,-9.766
1738232996.407,-41.992,-55.664,-23.926,-50.781,16.113
1738232996.410,-35.645,-53.711,-19.531,-32.715,257.812
1738232996.414,-35.156,-48.340,-20.508,-25.879,480.469
1738232996.418,-48.828,-40.527,-25.391,-51.758,-102.539
1738232996.422,-50.781,-41.016,-26.367,-58.105,-272.949
1738232996.426,-42.480,-41.992,-29.297,-45.410,-3.418
1738232996.474,-47.852,-44.434,-34.180,-50.293,-80.078
1738232996.478,-54.688,-41.992,-31.250,-44.434,-294.922
1738232996.482,-54.199,-44.922,-29.297,-33.203,-204.102
1738232996.486,-64.453,-52.734,-39.062,-55.176,144.043
1738232996.490,-62.988,-45.410,-46.875,-78.613,-67.383
1738232996.494,-49.805,-35.156,-45.410,-51.270,-204.102
1738232996.498,-46.875,-37.109,-42.969,-36.621,31.250
1738232996.501,-22.461,-43.457,-37.598,-17.578,376.465
1738232996.505,-31.738,-31.250,-45.898,-26.855,128.418
1738232996.509,-66.406,-18.555,-52.734,-74.219,-212.891
1738232996.513,-42.969,-19.531,-55.176,-73.730,-164.551
1738232996.517,-14.648,-16.602,-66.406,-57.617,-113.281
1738232996.480,8.301,-8.789,-78.125,-27.832,-203.125
1738232996.484,16.602,-7.812,-79.590,-16.113,-239.258
1738232996.488,3.418,-13.672,-83.008,-33.203,-104.492
1738232996.492,7.324,-12.207,-90.332,-21.973,-125.000
1738232996.496,19.531,-16.113,-96.191,1.953,-257.812
1738232996.500,25.879,-23.926,-99.609,10.254,-152.344
1738232996.504,19.043,-31.738,-104.492,10.742,125.000
1738232996.507,25.391,-39.551,-107.422,22.949,-10.254
1738232996.511,36.133,-38.086,-101.562,13.184,-308.594
1738232996.515,49.805,-41.992,-86.426,32.715,-237.305
1738232996.519,61.035,-53.711,-78.125,63.477,-4.883
1738232996.523,54.199,-52.734,-82.031,49.805,90.332
1738232996.519,50.781,-49.316,-83.008,41.992,17.090
1738232996.523,50.293,-47.852,-89.355,37.109,-94.238
1738232996.527,59.570,-44.434,-90.820,39.551,-9.277
1738232996.531,69.824,-39.551,-93.262,53.223,-107.422
1738232996.535,58.105,-42.480,-93.750,55.664,-167.480
1738232996.539,52.246,-40.527,-92.285,56.152,15.625
1738232996.543,63.477,-39.551,-95.215,45.410,508.301
1738232996.546,65.918,-42.480,-89.355,33.691,757.812
1738232996.550,55.664,-33.691,-86.426,47.363,490.723
1738232996.554,53.711,-30.273,-93.750,44.434,-30.273
1738232996.558,50.293,-33.691,-92.285,28.809,-166.016
1738232996.562,35.645,-35.645,-85.938,21.973,-230.469
1738232996.565,22.461,-39.062,-85.449,34.180,-346.191
1738232996.569,19.043,-45.898,-87.402,33.691,-153.809
1738232996.573,27.832,-49.316,-83.008,11.719,-53.711
1738232996.577,32.715,-46.387,-75.684,4.395,-209.473
1738232996.638,5.371,-61.035,-83.008,-14.160,-121.582
1738232996.642,-9.766,-62.988,-79.590,-7.812,266.602
1738232996.646,-24.414,-62.012,-76.660,-6.836,62.500
1738232996.650,-15.625,-50.781,-83.008,-16.113,-303.711
1738232996.654,-9.277,-47.363,-88.379,-20.996,-1.953
1738232996.658,-6.348,-46.875,-88.867,-12.207,408.203
1738232996.662,0.977,-43.945,-88.867,-24.414,154.785
1738232996.665,-3.906,-42.969,-86.914,-31.738,-296.875
1738232996.669,-17.578,-47.363,-88.867,-32.227,-269.043
1738232996.673,-21.484,-49.805,-94.238,-28.320,-137.207
1738232996.677,-12.695,-38.574,-91.797,-20.996,-229.980
1738232996.681,-4.883,-34.180,-83.008,-27.832,-306.152
1738232996.668,-4.883,-31.250,-72.754,-26.367,-101.562
1738232996.672,-5.859,-25.879,-70.801,-17.090,163.574
1738232996.676,-8.301,-20.996,-66.406,-16.113,-137.695
1738232996.680,-11.230,-18.555,-54.688,-0.977,-261.719
1738232996.684,-23.438,-29.785,-52.734,1.465,-85.449
1738232996.688,-18.066,-33.203,-56.152,-18.066,-40.039
1738232996.692,-19.043,-26.855,-61.523,-18.555,-143.555
1738232996.695,-25.879,-33.203,-65.918,-10.254,-97.656
1738232996.699,-19.043,-42.480,-63.477,-18.066,167.480
1738232996.703,-9.766,-41.504,-61.523,-31.250,4.883
1738232996.707,-20.508,-38.086,-62.012,-48.340,-254.883
1738232996.711,-37.598,-33.203,-68.359,-38.574,-220.703
1738232996.728,-25.391,-25.879,-66.406,-14.160,302.246
1738232996.732,-26.367,-28.320,-62.500,-21.484,642.578
1738232996.736,-24.902,-30.762,-62.988,-40.039,104.004
1738232996.740,-26.855,-25.391,-55.176,-36.133,-269.531
1738232996.744,-33.691,-15.137,-56.152,-26.367,-183.594
1738232996.748,-36.133,-24.414,-56.641,-24.902,-58.594
1738232996.752,-37.598,-28.809,-55.176,-36.133,-125.977
1738232996.755,-25.879,-21.973,-55.664,-48.828,-126.465
1738232996.759,-20.020,-24.902,-43.457,-34.180,249.023
1738232996.763,-27.832,-21.973,-36.621,-21.973,12.695
1738232996.767,-20.508,-16.602,-40.527,-13.184,-335.938
1738232996.771,-18.555,-20.508,-42.969,-14.648,-125.000
1738232996.788,-24.902,-22.461,-43.457,-27.832,416.504
1738232996.792,-40.527,-16.602,-45.898,-35.156,85.938
1738232996.796,-46.875,-10.254,-50.293,-41.016,-341.309
1738232996.800,-31.250,-8.789,-52.246,-33.691,-166.992
1738232996.804,-28.320,-6.836,-54.688,-24.414,-152.832
1738232996.808,-24.902,-6.348,-57.129,-14.160,-168.945
1738232996.812,-24.414,-3.418,-60.059,-1.953,-103.516
1738232996.815,-35.156,6.348,-61.035,-20.996,-30.762
1738232996.819,-35.156,10.742,-56.641,-31.250,-168.457
1738232996.823,-41.016,1.953,-59.082,-30.762,-267.578
1738232996.827,-38.574,6.836,-63.965,-26.367,-230.957
1738232996.831,-27.344,6.836,-62.988,-20.996,286.133
1738232996.820,-35.645,-0.977,-58.594,-21.484,737.793
1738232996.824,-26.367,8.301,-55.176,-21.484,75.195
1738232996.828,-18.066,7.812,-43.945,-15.137,-214.844
1738232996.832,-34.668,-0.977,-35.645,-21.484,85.938
1738232996.836,-37.109,0.488,-38.574,-34.180,-112.305
1738232996.840,-33.203,-2.441,-39.551,-44.434,-200.195
1738232996.844,-34.180,-3.418,-28.809,-21.973,-90.332
1738232996.847,-26.367,0.000,-22.461,-13.672,-74.707
1738232996.851,-21.973,-8.301,-28.809,-25.879,-191.895
1738232996.855,-26.367,-2.441,-31.250,-40.527,-299.316
1738232996.859,-23.438,5.859,-30.762,-42.480,-247.559
1738232996.863,-19.531,8.301,-36.621,-33.691,-133.789
1738232996.867,-17.578,12.207,-41.504,-27.832,-204.590
1738232996.871,-14.160,12.207,-39.551,-20.020,-260.254
1738232996.875,-16.113,1.465,-36.621,0.000,76.172
1738232996.879,-7.812,-6.348,-43.457,-8.301,448.242
1738232996.883,-16.602,-1.465,-44.434,-42.969,1.465
1738232996.887,-11.230,-3.906,-42.480,-41.504,-148.438
1738232996.891,7.324,-8.789,-44.922,-29.785,228.516
1738232996.894,-12.695,-7.812,-42.969,-41.016,59.082
1738232996.898,-17.090,-1.465,-48.340,-46.387,-280.273
1738232996.902,-3.418,-4.395,-50.781,-35.645,-324.219
1738232996.906,-19.043,-13.672,-41.504,-19.531,87.891
1738232996.910,-15.137,-5.371,-43.945,-13.672,463.379
1738232996.923,17.090,3.418,-54.688,-37.598,54.199
1738232996.927,-0.977,-0.488,-53.711,-10.254,-178.223
1738232996.931,-40.527,3.906,-56.641,-32.227,6.348
1738232996.935,-59.570,5.371,-55.176,-67.383,-121.582
1738232996.939,-54.199,0.488,-53.223,-45.410,-168.457
1738232996.943,-35.645,-5.859,-53.223,-46.875,-8.301
1738232996.947,-31.250,-8.301,-42.969,-43.945,284.668
1738232996.950,-33.691,-1.953,-36.133,-30.762,-18.555
1738232996.954,-33.203,1.465,-36.133,-32.227,-331.055
1738232996.958,-46.387,-8.789,-40.527,-54.688,-208.984
1738232996.962,-50.781,-23.926,-43.945,-58.594,375.488
1738232996.966,-41.504,-16.113,-42.969,-87.891,571.289
1738232996.953,-59.082,-7.324,-44.434,-112.305,-111.816
1738232996.957,-104.980,-13.672,-41.992,-77.637,-273.438
1738232996.961,-63.477,-20.020,-39.062,-85.449,-185.059
1738232996.965,-41.504,-23.926,-40.039,-47.852,-268.555
1738232996.969,-85.938,-27.832,-32.715,-53.711,-267.578
1738232996.973,-61.523,-24.902,-30.273,-47.363,-63.477
1738232996.977,-54.688,-20.996,-34.180,-28.809,42.480
1738232996.980,-67.383,-22.461,-35.156,-47.852,-104.980
1738232996.984,-53.223,-23.926,-41.504,-54.199,-138.184
1738232996.988,-48.340,-32.227,-44.922,-47.852,-2.930
1738232996.992,-39.551,-34.668,-38.086,-13.672,-145.996
1738232996.996,-8.789,-20.020,-38.574,-13.672,-207.031
1738232996.998,-21.973,-6.836,-47.363,-53.223,-102.051
1738232997.002,-34.180,-16.602,-52.246,-52.246,262.207
1738232997.006,-34.180,-13.184,-52.734,-57.129,578.613
1738232997.010,-23.438,0.977,-49.805,-53.223,26.367
1738232997.014,-9.766,5.371,-44.922,-34.668,-306.641
1738232997.018,-35.156,3.418,-37.109,-29.785,-102.539
1738232997.022,-49.805,1.465,-41.016,-32.715,-8.789
1738232997.025,-36.621,7.324,-46.387,-45.410,-223.145
1738232997.029,-29.785,12.695,-41.992,-46.875,-268.555
1738232997.033,-36.621,11.230,-37.598,-40.039,380.371
1738232997.037,-43.945,14.648,-39.551,-41.992,205.078
1738232997.041,-28.320,11.230,-42.480,-45.898,-339.844
1738232997.044,-29.297,5.859,-41.504,-39.551,-199.219
1738232997.048,-47.852,13.184,-36.621,-40.039,-181.641
1738232997.052,-25.391,20.996,-29.785,-44.434,-317.383
1738232997.056,-25.879,15.137,-27.832,-36.621,-293.457
1738232997.060,-35.645,5.859,-29.297,-18.066,-158.203
1738232997.064,-26.367,2.441,-28.320,-23.926,-57.617
1738232997.068,-39.551,-5.859,-27.832,-41.504,-77.148
1738232997.071,-28.320,-13.672,-33.203,-31.738,-198.730
1738232997.075,-14.648,-11.719,-37.109,-10.742,100.586
1738232997.079,-18.066,-11.719,-37.598,-18.555,283.203
1738232997.083,-18.555,-13.184,-38.086,-36.133,-189.941
1738232997.087,-25.879,-11.230,-35.156,-38.574,-225.098
1738232997.118,-28.809,-12.207,-31.250,-27.344,251.465
1738232997.122,-37.598,-12.207,-34.180,-27.832,129.395
1738232997.126,-38.086,-17.090,-38.574,-33.691,-249.512
1738232997.130,-17.578,-21.484,-39.551,-31.250,-241.211
1738232997.134,-27.832,-24.414,-35.156,-30.273,-95.215
1738232997.138,-44.434,-30.273,-33.691,-37.598,-68.848
1738232997.142,-30.762,-28.809,-32.227,-34.668,-39.551
1738232997.145,-32.715,-26.855,-30.273,-24.414,-18.066
1738232997.149,-44.434,-33.691,-28.320,-30.273,410.156
1738232997.153,-43.945,-27.832,-25.391,-37.109,248.535
1738232997.157,-36.621,-20.996,-20.996,-17.578,-310.059
1738232997.161,-39.062,-27.832,-24.414,-23.926,-272.949
1738232997.134,-25.391,-30.762,-27.832,-53.711,-195.312
1738232997.138,-16.113,-33.691,-33.691,-62.012,-214.355
1738232997.142,-36.621,-33.691,-35.645,-53.711,-220.215
1738232997.146,-35.156,-29.785,-34.668,-41.504,-154.785
1738232997.150,-12.207,-28.809,-34.668,-18.066,-45.410
1738232997.154,-10.254,-29.297,-32.715,-6.836,-54.688
1738232997.158,-51.758,-32.715,-32.715,-37.598,-29.297
1738232997.161,-41.016,-29.297,-32.715,-49.805,193.359
1738232997.165,-26.855,-25.391,-38.574,-50.781,56.152
1738232997.169,-41.016,-28.320,-38.086,-56.152,-222.168
1738232997.173,-42.969,-28.320,-32.715,-45.898,-178.711
1738232997.177,-44.434,-22.949,-29.785,-39.062,102.051
1738232997.178,-36.621,-20.020,-30.762,-50.293,119.629
1738232997.182,-23.926,-15.625,-32.227,-43.945,-165.527
1738232997.186,-39.551,-12.207,-34.180,-37.598,-248.047
1738232997.190,-36.133,-19.531,-34.668,-37.109,304.688
1738232997.194,-33.691,-23.438,-36.621,-38.574,616.211
1738232997.198,-47.852,-23.438,-37.598,-55.176,41.504
1738232997.202,-52.734,-24.902,-32.227,-42.480,21.484
