timestamps,TP9,AF7,AF8,TP10,Right AUX
1738836516.276,-956.055,-952.637,-671.875,-887.695,896.484
1738836516.280,-1000.000,-1000.000,-844.727,-1000.000,999.512
1738836516.284,-627.930,-795.410,-918.945,-857.910,751.953
1738836516.288,965.820,743.652,-85.938,581.055,-748.535
1738836516.292,605.957,732.422,354.004,931.641,-857.910
1738836516.296,-894.531,-824.219,-554.199,-615.723,684.082
1738836516.300,-1000.000,-1000.000,-822.266,-1000.000,999.512
1738836516.303,-858.398,-979.492,-893.066,-1000.000,966.797
1738836516.307,580.566,348.145,-136.719,160.645,-288.086
1738836516.311,930.664,999.512,438.965,999.512,-1000.000
1738836516.315,-615.723,-523.438,-443.848,-270.508,332.031
1738836516.319,-1000.000,-1000.000,-808.594,-1000.000,999.512
1738836516.321,-1000.000,-1000.000,-953.613,-1000.000,999.512
1738836516.325,160.156,51.270,-388.184,-60.059,-66.895
1738836516.329,999.512,999.512,509.277,999.512,-1000.000
1738836516.333,-270.996,-211.914,-248.535,-60.059,112.793
1738836516.337,-1000.000,-1000.000,-832.520,-1000.000,999.512
1738836516.341,-1000.000,-1000.000,-929.688,-1000.000,999.512
1738836516.345,-60.059,-160.156,-469.238,-270.508,159.180
1738836516.348,999.512,999.512,519.531,999.512,-1000.000
1738836516.352,-60.059,2.930,-154.297,171.387,-92.285
1738836516.356,-1000.000,-1000.000,-834.473,-1000.000,999.512
1738836516.360,-1000.000,-1000.000,-907.227,-1000.000,999.512
1738836516.364,-270.508,-266.113,-625.000,-255.371,231.445
1738836516.366,999.512,999.512,446.777,999.512,-1000.000
1738836516.370,171.387,165.039,-11.230,171.875,-202.637
1738836516.374,-1000.000,-1000.000,-791.504,-1000.000,999.512
1738836516.378,-1000.000,-1000.000,-873.535,-1000.000,999.512
1738836516.382,-255.371,-255.859,-729.492,-255.371,224.121
1738836516.386,999.512,999.512,371.094,999.512,-1000.000
1738836516.390,171.387,167.969,136.719,163.086,-198.242
1738836516.393,-1000.000,-1000.000,-745.117,-1000.000,998.535
1738836516.397,-1000.000,-1000.000,-878.906,-1000.000,999.512
1738836516.401,-255.371,-328.613,-816.406,-441.406,322.754
1738836516.405,999.512,999.512,273.926,999.512,-1000.000
1738836516.409,163.574,201.172,113.281,383.789,-300.781
1738836516.412,-1000.000,-1000.000,-851.562,-962.402,965.820
1738836516.416,-1000.000,-1000.000,-832.031,-1000.000,999.512
1738836516.420,-416.016,-520.996,-851.562,-593.750,509.766
1738836516.424,999.512,999.512,91.309,989.258,-1000.000
1738836516.428,379.395,413.574,228.516,597.656,-498.535
1738836516.432,-960.449,-966.309,-666.992,-883.301,910.645
1738836516.436,-1000.000,-1000.000,-761.719,-1000.000,999.512
1738836516.439,-541.016,-713.379,-915.527,-767.578,665.527
1738836516.443,999.512,866.699,-49.805,699.707,-881.348
1738836516.447,585.449,639.648,370.605,911.133,-767.090
1738836516.451,-875.977,-886.230,-583.496,-604.004,748.535
1738836516.455,-1000.000,-1000.000,-838.379,-1000.000,999.512
1738836516.471,-733.887,-927.734,-933.594,-965.820,879.395
1738836516.475,747.559,477.539,-171.875,287.598,-478.027
1738836516.479,890.137,933.105,409.180,999.512,-1000.000
1738836516.483,-614.258,-631.348,-484.375,-279.785,440.430
1738836516.487,-1000.000,-1000.000,-819.824,-1000.000,999.512
1738836516.491,-937.500,-1000.000,-903.320,-1000.000,999.512
1738836516.495,350.098,109.863,-234.375,38.086,-71.777
1738836516.498,999.512,999.512,483.398,999.512,-1000.000
1738836516.502,-309.082,-301.270,-346.191,-82.031,162.598
1738836516.506,-1000.000,-1000.000,-816.406,-1000.000,999.512
1738836516.510,-1000.000,-1000.000,-928.711,-1000.000,999.512
1738836516.514,45.410,-107.422,-495.117,-166.504,90.332
1738836516.516,999.512,999.512,493.652,999.512,-1000.000
1738836516.520,-102.051,-73.242,-131.348,114.746,-29.297
1738836516.524,-1000.000,-1000.000,-829.590,-1000.000,999.512
1738836516.528,-1000.000,-1000.000,-916.016,-1000.000,999.512
1738836516.532,-165.527,-269.043,-604.492,-258.789,226.562
1738836516.536,999.512,999.512,466.797,999.512,-1000.000
1738836516.540,83.496,141.113,-30.762,171.875,-194.824
1738836516.543,-1000.000,-1000.000,-830.078,-1000.000,999.512
1738836516.547,-1000.000,-1000.000,-863.281,-1000.000,999.512
1738836516.551,-261.230,-257.812,-641.113,-255.371,224.609
1738836516.555,999.512,999.512,395.508,999.512,-1000.000
1738836516.559,170.898,169.922,44.922,166.504,-200.684
1738836516.561,-1000.000,-1000.000,-800.781,-1000.000,999.512
1738836516.565,-1000.000,-1000.000,-872.070,-1000.000,999.512
1738836516.569,-255.371,-284.180,-799.316,-361.328,265.137
1738836516.573,999.512,999.512,292.969,999.512,-1000.000
1738836516.577,165.527,166.504,107.422,274.414,-246.094
1738836516.581,-1000.000,-1000.000,-819.336,-998.047,980.469
1738836516.585,-1000.000,-1000.000,-847.168,-1000.000,999.512
1738836516.588,-361.328,-475.586,-865.234,-548.828,463.867
1738836516.592,999.512,999.512,205.078,999.512,-1000.000
1738836516.596,273.438,350.098,257.324,498.047,-442.871
1738836516.600,-998.047,-984.863,-769.531,-932.617,928.223
1738836516.604,-1000.000,-1000.000,-839.355,-1000.000,999.512
1738836516.606,-548.828,-658.691,-884.766,-751.465,620.117
1738836516.610,999.512,940.918,-9.277,780.762,-947.266
1738836516.614,496.094,569.336,296.387,775.879,-692.383
1738836516.618,-924.805,-914.551,-606.934,-755.371,796.875
1738836516.622,-1000.000,-1000.000,-802.734,-1000.000,999.512
1738836516.626,-678.223,-806.152,-874.512,-895.020,769.043
1738836516.630,881.348,691.895,-64.453,462.402,-709.961
1738836516.633,762.207,852.539,465.332,999.512,-910.645
1738836516.637,-758.789,-699.219,-414.062,-449.707,635.254
1738836516.641,-1000.000,-1000.000,-834.961,-1000.000,999.512
1738836516.645,-935.547,-1000.000,-947.266,-1000.000,992.188
1738836516.649,397.949,208.496,-228.516,48.828,-187.012
1738836516.651,999.512,999.512,494.141,999.512,-1000.000
1738836516.655,-450.195,-382.812,-383.301,-166.992,227.539
1738836516.659,-1000.000,-1000.000,-826.660,-1000.000,999.512
1738836516.663,-1000.000,-1000.000,-919.434,-1000.000,999.512
1738836516.667,48.340,-33.691,-457.031,-167.480,28.809
1738836516.671,999.512,999.512,492.188,999.512,-1000.000
1738836516.675,-162.598,-129.395,-184.082,55.176,51.758
1738836516.678,-1000.000,-1000.000,-778.320,-1000.000,999.512
1738836516.682,-1000.000,-1000.000,-854.980,-1000.000,999.512
1738836516.686,-93.262,-241.699,-603.516,-263.184,202.637
1738836516.690,999.512,999.512,439.941,999.512,-1000.000
1738836516.694,45.898,91.309,-73.242,171.387,-162.598
1738836516.697,-1000.000,-1000.000,-834.961,-1000.000,999.512
1738836516.701,-1000.000,-1000.000,-899.414,-1000.000,999.512
1738836516.705,-263.184,-261.230,-666.992,-255.371,226.562
1738836516.709,999.512,999.512,420.410,999.512,-1000.000
1738836516.713,170.898,171.387,26.367,168.945,-201.172
1738836516.717,-1000.000,-1000.000,-804.688,-1000.000,999.512
1738836516.721,-1000.000,-1000.000,-845.215,-1000.000,999.512
1738836516.724,-255.371,-255.371,-714.844,-313.477,255.859
1738836516.728,999.512,999.512,331.055,999.512,-1000.000
1738836516.732,171.387,164.062,68.359,270.020,-217.773
1738836516.736,-1000.000,-1000.000,-823.730,-996.094,991.699
1738836516.740,-1000.000,-1000.000,-837.891,-1000.000,999.512
1738836516.741,-261.719,-416.504,-839.355,-455.566,397.949
1738836516.745,999.512,999.512,192.383,999.512,-1000.000
1738836516.749,261.230,285.645,181.641,471.191,-375.977
1738836516.753,-991.699,-1000.000,-789.551,-920.410,945.801
1738836516.757,-1000.000,-1000.000,-856.445,-1000.000,999.512
1738836516.761,-455.078,-597.656,-895.020,-614.746,563.965
1738836516.765,999.512,999.512,102.051,938.477,-1000.000
1738836516.768,453.125,497.070,329.590,719.238,-584.961
1738836516.772,-929.199,-947.754,-702.148,-771.484,877.930
1738836516.776,-1000.000,-1000.000,-837.891,-1000.000,999.512
1738836516.780,-618.652,-815.430,-930.176,-844.238,759.277
1738836516.784,948.730,709.473,-107.910,557.617,-717.285
1738836516.786,675.293,756.836,370.117,999.512,-910.645
1738836516.790,-818.848,-807.129,-544.434,-493.164,615.234
1738836516.794,-1000.000,-1000.000,-810.059,-1000.000,999.512
1738836516.798,-851.562,-999.023,-946.289,-1000.000,945.801
1738836516.802,571.289,304.688,-233.398,156.250,-348.145
1738836516.806,961.914,999.512,521.973,999.512,-1000.000
1738836516.810,-567.871,-500.977,-339.355,-219.238,409.668
1738836516.813,-1000.000,-1000.000,-836.426,-1000.000,999.512
1738836516.817,-1000.000,-1000.000,-962.402,-1000.000,999.512
1738836516.821,161.133,13.184,-341.309,-60.059,-27.344
1738836516.825,999.512,999.512,544.922,999.512,-1000.000
1738836516.829,-270.508,-198.242,-274.414,-30.762,100.098
1738836516.846,-1000.000,-1000.000,-833.008,-1000.000,999.512
1738836516.850,-1000.000,-1000.000,-913.086,-1000.000,999.512
1738836516.854,-60.059,-193.359,-561.035,-268.555,166.504
1738836516.858,999.512,999.512,440.918,999.512,-1000.000
1738836516.862,-60.059,23.926,-110.352,171.387,-114.258
1738836516.866,-1000.000,-1000.000,-813.965,-1000.000,999.512
1738836516.870,-1000.000,-1000.000,-884.277,-1000.000,999.512
1738836516.873,-270.508,-265.625,-666.504,-255.371,229.980
1738836516.877,999.512,999.512,399.902,999.512,-1000.000
1738836516.881,171.387,171.387,93.262,171.387,-202.637
1738836516.885,-1000.000,-1000.000,-732.422,-1000.000,999.512
1738836516.889,-1000.000,-1000.000,-913.574,-1000.000,999.512
1738836516.891,-255.371,-254.883,-732.910,-255.371,223.633
1738836516.895,999.512,999.512,372.559,999.512,-1000.000
1738836516.899,171.387,166.016,56.641,162.109,-196.289
1738836516.903,-1000.000,-1000.000,-836.426,-1000.000,997.559
1738836516.907,-1000.000,-1000.000,-847.168,-1000.000,999.512
1738836516.911,-255.371,-360.840,-805.664,-461.914,359.863
1738836516.915,999.512,999.512,262.695,999.512,-1000.000
1738836516.918,162.598,226.074,116.699,386.230,-328.125
1738836516.922,-1000.000,-1000.000,-803.223,-964.355,959.961
1738836516.926,-1000.000,-1000.000,-765.625,-1000.000,999.512
1738836516.930,-441.406,-535.645,-874.023,-624.023,523.438
1738836516.934,999.512,999.512,111.816,969.727,-1000.000
1738836516.936,382.812,444.336,286.133,604.980,-512.207
1738836516.940,-962.402,-955.566,-705.566,-892.578,909.668
1738836516.944,-1000.000,-1000.000,-851.074,-1000.000,999.512
1738836516.948,-589.355,-732.910,-911.133,-841.797,710.449
1738836516.952,991.211,833.984,-54.199,602.539,-815.430
1738836516.956,596.680,676.758,374.512,927.734,-810.547
1738836516.960,-887.695,-857.422,-567.383,-612.793,722.656
1738836516.963,-1000.000,-1000.000,-846.680,-1000.000,999.512
1738836516.967,-818.848,-937.500,-893.066,-1000.000,940.918
1738836516.971,631.836,443.359,-132.812,193.359,-354.492
1738836516.975,918.945,972.168,416.992,999.512,-1000.000
1738836516.979,-600.586,-579.590,-456.543,-266.602,386.719
1738836516.982,-1000.000,-1000.000,-820.312,-1000.000,999.512
1738836516.986,-934.082,-1000.000,-939.941,-1000.000,999.512
1738836516.990,342.285,93.262,-336.426,2.930,-89.844
1738836516.994,999.512,999.512,522.949,999.512,-1000.000
1738836516.998,-267.578,-261.719,-227.051,-62.500,200.195
1738836517.002,-1000.000,-1000.000,-813.965,-1000.000,999.512
1738836517.006,-1000.000,-1000.000,-938.477,-1000.000,999.512
1738836517.009,42.480,-124.512,-459.961,-204.102,131.836
1738836517.013,999.512,999.512,562.500,999.512,-1000.000
1738836517.017,-64.941,-38.086,-139.160,162.109,-58.594
1738836517.021,-1000.000,-1000.000,-842.773,-1000.000,999.512
1738836517.025,-1000.000,-1000.000,-893.555,-1000.000,999.512
1738836517.026,-168.945,-267.578,-646.973,-255.371,233.398
1738836517.030,999.512,999.512,394.043,999.512,-1000.000
1738836517.034,154.785,151.855,-45.898,171.387,-202.637
1738836517.038,-1000.000,-1000.000,-822.266,-1000.000,999.512
1738836517.042,-1000.000,-1000.000,-890.625,-1000.000,999.512
1738836517.046,-255.859,-256.836,-707.031,-255.371,223.633
1738836517.050,999.512,999.512,385.742,999.512,-1000.000
1738836517.053,171.387,168.945,135.254,166.504,-199.707
1738836517.057,-1000.000,-1000.000,-718.262,-1000.000,999.512
1738836517.061,-1000.000,-1000.000,-884.766,-1000.000,999.512
1738836517.065,-255.371,-306.641,-795.898,-363.770,286.133
1738836517.069,999.512,999.512,318.359,999.512,-1000.000
1738836517.071,166.016,169.434,89.844,338.379,-262.695
1738836517.075,-1000.000,-1000.000,-857.910,-970.215,976.562
1738836517.079,-1000.000,-1000.000,-842.285,-1000.000,999.512
1738836517.083,-363.281,-500.977,-853.027,-543.457,479.004
1738836517.087,999.512,999.512,130.371,999.512,-1000.000
1738836517.091,313.965,368.164,229.980,547.852,-464.844
1738836517.095,-980.469,-982.422,-685.059,-900.391,920.898
1738836517.098,-1000.000,-1000.000,-729.980,-1000.000,999.512
1738836517.102,-545.898,-685.547,-877.441,-753.418,636.230
1738836517.106,999.512,912.109,-29.297,793.457,-938.477
1738836517.110,511.719,591.309,317.383,743.164,-687.988
1738836517.114,-923.340,-918.945,-664.062,-830.078,836.914
1738836517.116,-1000.000,-1000.000,-835.449,-1000.000,999.512
1738836517.120,-750.488,-902.344,-931.152,-950.195,844.238
1738836517.124,779.785,536.133,-150.391,372.070,-549.316
1738836517.128,777.344,892.578,421.387,999.512,-1000.000
1738836517.132,-762.207,-676.270,-482.910,-449.707,502.930
1738836517.136,-1000.000,-1000.000,-825.195,-1000.000,999.512
1738836517.140,-951.660,-1000.000,-901.855,-1000.000,999.512
1738836517.143,373.535,158.691,-229.980,48.828,-125.000
1738836517.147,999.512,999.512,462.891,999.512,-1000.000
1738836517.151,-450.195,-343.262,-369.629,-166.992,195.801
1738836517.155,-1000.000,-1000.000,-818.848,-1000.000,999.512
1738836517.159,-1000.000,-1000.000,-930.176,-1000.000,999.512
1738836517.161,48.340,-63.965,-470.215,-166.992,52.246
1738836517.165,999.512,999.512,496.094,999.512,-1000.000
1738836517.169,-167.480,-100.586,-176.270,55.176,8.301
1738836517.173,-1000.000,-1000.000,-849.609,-1000.000,999.512
1738836517.177,-1000.000,-1000.000,-928.711,-1000.000,999.512
1738836517.181,-165.527,-256.348,-554.688,-263.184,219.727
1738836517.185,999.512,999.512,504.395,999.512,-1000.000
1738836517.188,54.688,117.188,-66.406,171.875,-183.105
1738836517.192,-1000.000,-1000.000,-837.402,-1000.000,999.512
1738836517.196,-1000.000,-1000.000,-905.762,-1000.000,999.512
1738836517.200,-244.629,-240.723,-603.516,-236.816,225.098
1738836517.204,999.512,999.512,447.266,999.512,-1000.000
1738836517.207,83.008,83.496,-18.066,79.102,-202.148
1738836517.211,-1000.000,-1000.000,-769.531,-1000.000,999.512
1738836517.215,-1000.000,-1000.000,-858.887,-1000.000,999.512
1738836517.219,-257.812,-257.812,-770.996,-346.680,241.211
1738836517.223,999.512,999.512,342.773,999.512,-1000.000
1738836517.227,169.434,163.086,111.328,272.461,-213.867
1738836517.231,-1000.000,-1000.000,-807.129,-997.070,989.746
1738836517.234,-1000.000,-1000.000,-853.027,-1000.000,999.512
1738836517.238,-294.922,-437.012,-850.098,-526.367,437.988
1738836517.242,999.512,999.512,245.117,999.512,-1000.000
1738836517.246,264.160,310.059,202.637,493.164,-401.367
1738836517.250,-993.164,-993.164,-811.035,-928.223,942.383
1738836517.267,-1000.000,-1000.000,-818.848,-1000.000,999.512
1738836517.271,-516.602,-611.816,-880.371,-716.797,583.984
1738836517.275,999.512,992.188,32.227,818.848,-1000.000
1738836517.279,490.723,526.855,278.320,768.555,-618.164
1738836517.311,546.875,259.277,-226.074,134.766,-238.281
1738836517.315,999.512,999.512,454.590,999.512,-1000.000
1738836517.319,-442.871,-462.402,-427.246,-175.781,276.367
1738836517.323,-1000.000,-1000.000,-829.590,-1000.000,999.512
1738836517.327,-1000.000,-1000.000,-932.617,-1000.000,999.512
1738836517.331,152.832,-0.977,-396.973,-62.988,-7.324
1738836517.335,999.512,999.512,501.465,999.512,-1000.000
1738836517.338,-189.941,-178.223,-250.000,24.902,85.449
1738836517.342,-1000.000,-1000.000,-784.180,-1000.000,999.512
1738836517.346,-1000.000,-1000.000,-854.492,-1000.000,999.512
1738836517.350,-62.500,-218.262,-581.543,-264.160,187.012
1738836517.354,999.512,999.512,445.312,999.512,-1000.000
1738836517.356,7.812,43.945,-100.586,171.875,-133.301
1738836517.360,-1000.000,-1000.000,-828.125,-1000.000,999.512
1738836517.364,-1000.000,-1000.000,-904.785,-1000.000,999.512
1738836517.368,-247.070,-245.605,-655.273,-236.816,209.961
1738836517.372,999.512,999.512,381.836,999.512,-1000.000
1738836517.376,83.008,83.496,-26.367,83.496,-114.258
1738836517.380,-1000.000,-1000.000,-780.273,-1000.000,992.188
1738836517.383,-1000.000,-1000.000,-850.098,-1000.000,999.512
1738836517.387,-257.812,-257.812,-657.227,-259.277,242.676
1738836517.391,999.512,999.512,386.719,999.512,-1000.000
1738836517.395,170.898,165.039,70.312,189.453,-198.730
1738836517.399,-1000.000,-1000.000,-789.062,-1000.000,998.535
1738836517.402,-1000.000,-1000.000,-851.074,-1000.000,999.512
1738836517.406,-255.371,-391.602,-835.938,-459.473,363.281
1738836517.410,999.512,999.512,238.770,999.512,-1000.000
1738836517.414,161.621,245.605,159.668,386.230,-343.262
1738836517.418,-1000.000,-1000.000,-805.176,-964.355,953.613
1738836517.422,-1000.000,-1000.000,-832.520,-1000.000,999.512
1738836517.426,-461.914,-568.848,-875.000,-628.906,555.176
1738836517.429,999.512,999.512,131.348,966.797,-1000.000
1738836517.433,385.254,464.844,291.504,606.445,-550.293
1738836517.437,-964.355,-954.590,-724.609,-894.531,895.020
1738836517.441,-1000.000,-1000.000,-825.684,-1000.000,999.512
1738836517.445,-628.906,-770.508,-923.340,-858.398,722.656
1738836517.446,966.309,778.320,-96.680,581.055,-782.227
1738836517.450,605.469,714.355,331.055,931.641,-856.934
1738836517.454,-894.531,-833.984,-595.215,-615.723,667.969
1738836517.458,-1000.000,-1000.000,-823.730,-1000.000,999.512
1738836517.462,-856.445,-958.496,-943.359,-1000.000,927.734
1738836517.466,583.008,391.602,-224.121,160.156,-399.902
1738836517.470,929.199,999.512,514.648,999.512,-1000.000
1738836517.473,-610.840,-536.133,-335.938,-270.508,465.332
1738836517.477,-1000.000,-1000.000,-846.191,-1000.000,999.512
1738836517.481,-1000.000,-1000.000,-969.727,-1000.000,999.512
1738836517.485,239.258,83.496,-346.680,-41.504,-83.008
1738836517.489,999.512,999.512,468.262,999.512,-1000.000
1738836517.493,-358.887,-326.172,-342.285,-147.949,216.309
1738836517.497,-1000.000,-1000.000,-830.566,-1000.000,999.512
1738836517.501,-1000.000,-1000.000,-916.992,-1000.000,999.512
1738836517.505,-45.898,-145.020,-555.176,-272.461,143.555
1738836517.509,999.512,999.512,454.590,999.512,-1000.000
1738836517.513,-57.617,-15.625,-109.375,171.387,-59.570
1738836517.517,-1000.000,-1000.000,-777.832,-1000.000,999.512
1738836517.520,-1000.000,-1000.000,-849.609,-1000.000,999.512
1738836517.524,-195.801,-267.578,-649.414,-255.371,233.398
1738836517.528,999.512,999.512,425.293,999.512,-1000.000
1738836517.532,160.156,165.527,-3.418,171.875,-202.637
1738836517.536,-1000.000,-1000.000,-809.570,-1000.000,999.512
1738836517.538,-1000.000,-1000.000,-889.648,-1000.000,999.512
1738836517.542,-255.371,-255.859,-710.938,-255.371,224.121
1738836517.546,999.512,999.512,411.133,999.512,-1000.000
1738836517.550,171.387,168.457,81.543,164.551,-195.312
1738836517.554,-1000.000,-1000.000,-806.641,-1000.000,996.094
1738836517.558,-1000.000,-1000.000,-837.891,-1000.000,999.512
1738836517.562,-255.371,-319.336,-692.383,-400.879,377.930
1738836517.565,999.512,999.512,353.027,999.512,-1000.000
1738836517.569,166.016,191.406,95.215,384.766,-300.781
1738836517.573,-1000.000,-1000.000,-836.914,-977.539,974.121
1738836517.577,-1000.000,-1000.000,-841.309,-1000.000,999.512
1738836517.581,-365.234,-514.160,-851.562,-452.637,517.578
1738836517.596,999.512,999.512,144.043,999.512,-1000.000
1738836517.600,370.605,398.926,236.328,580.078,-491.699
1738836517.604,-956.055,-971.191,-735.352,-877.441,916.504
1738836517.608,-1000.000,-1000.000,-837.402,-1000.000,999.512
1738836517.612,-541.016,-704.102,-911.621,-735.352,662.109
1738836517.616,999.512,885.254,-30.762,750.977,-891.602
1738836517.620,565.430,612.793,360.352,880.859,-744.629
1738836517.623,-889.160,-908.203,-602.539,-627.441,780.762
1738836517.627,-1000.000,-1000.000,-864.746,-1000.000,999.512
1738836517.631,-738.770,-921.387,-892.578,-938.477,924.316
1738836517.635,755.859,497.559,-101.074,351.074,-404.297
1738836517.639,860.840,914.551,398.438,999.512,-1000.000
1738836517.642,-652.832,-654.785,-486.328,-312.988,443.359
1738836517.646,-1000.000,-1000.000,-820.801,-1000.000,999.512
1738836517.650,-941.895,-1000.000,-950.195,-1000.000,999.512
1738836517.654,357.422,127.930,-291.016,47.852,-158.691
1738836517.658,999.512,999.512,522.461,999.512,-1000.000
1738836517.662,-352.051,-318.359,-304.688,-119.629,195.312
1738836517.666,-1000.000,-1000.000,-834.473,-1000.000,999.512
1738836517.669,-1000.000,-1000.000,-941.895,-1000.000,999.512
1738836517.673,51.270,-99.121,-425.781,-166.016,89.355
1738836517.677,999.512,999.512,602.051,999.512,-1000.000
1738836517.681,-162.109,-86.914,-124.512,80.078,-19.043
1738836517.685,-1000.000,-1000.000,-833.984,-1000.000,999.512
1738836517.686,-1000.000,-1000.000,-896.973,-1000.000,999.512
1738836517.690,-166.992,-262.695,-614.258,-261.230,221.191
1738836517.694,999.512,999.512,412.598,999.512,-1000.000
1738836517.698,55.176,132.812,-64.453,171.387,-195.801
1738836517.702,-1000.000,-1000.000,-810.547,-1000.000,999.512
1738836517.706,-1000.000,-1000.000,-881.348,-1000.000,999.512
1738836517.710,-263.184,-258.301,-688.477,-255.371,224.121
1738836517.713,999.512,999.512,393.555,999.512,-1000.000
1738836517.717,170.898,170.898,120.117,166.016,-201.172
1738836517.721,-1000.000,-1000.000,-727.051,-1000.000,999.512
1738836517.725,-1000.000,-1000.000,-888.184,-1000.000,999.512
1738836517.729,-255.371,-272.461,-780.762,-361.328,261.230
1738836517.731,999.512,999.512,344.238,999.512,-1000.000
1738836517.735,166.016,165.039,99.609,274.414,-240.234
1738836517.739,-1000.000,-1000.000,-842.285,-998.047,982.910
1738836517.743,-1000.000,-1000.000,-848.633,-1000.000,999.512
1738836517.747,-361.328,-455.566,-789.551,-548.828,440.918
1738836517.751,999.512,999.512,237.305,999.512,-1000.000
1738836517.755,275.879,337.891,219.238,498.047,-400.391
1738836517.758,-999.023,-985.352,-705.566,-932.617,943.848
1738836517.762,-1000.000,-1000.000,-765.625,-1000.000,999.512
1738836517.766,-491.699,-627.930,-897.949,-751.465,596.191
1738836517.770,999.512,973.145,-2.930,780.762,-984.863
1738836517.774,485.840,557.617,332.520,777.344,-642.090
1738836517.778,-925.781,-921.875,-624.023,-760.254,843.262
1738836517.782,-1000.000,-1000.000,-836.914,-1000.000,999.512
1738836517.786,-722.656,-846.191,-929.688,-936.523,815.430
1738836517.790,811.523,636.230,-101.074,397.461,-621.582
1738836517.794,770.996,838.867,426.270,999.512,-961.914
1738836517.798,-759.766,-723.633,-511.719,-448.730,576.660
1738836517.802,-1000.000,-1000.000,-838.379,-1000.000,999.512
1738836517.805,-942.383,-1000.000,-897.949,-1000.000,999.512
1738836517.809,387.695,229.492,-207.031,66.406,-168.457
1738836517.813,999.512,999.512,458.496,999.512,-1000.000
1738836517.817,-442.383,-409.180,-380.859,-164.551,237.305
1738836517.821,-1000.000,-1000.000,-825.195,-1000.000,999.512
1738836517.822,-1000.000,-1000.000,-943.848,-1000.000,999.512
1738836517.826,149.902,-24.902,-449.219,-99.121,12.695
1738836517.830,999.512,999.512,500.488,999.512,-1000.000
1738836517.834,-169.922,-143.555,-188.477,47.363,69.336
1738836517.838,-1000.000,-1000.000,-838.867,-1000.000,999.512
1738836517.842,-1000.000,-1000.000,-923.828,-1000.000,999.512
1738836517.846,-75.684,-234.863,-541.504,-263.184,205.566
1738836517.849,999.512,999.512,546.387,999.512,-1000.000
1738836517.853,43.945,73.242,-68.848,171.875,-152.344
1738836517.857,-1000.000,-1000.000,-859.375,-1000.000,999.512
1738836517.861,-1000.000,-1000.000,-890.625,-1000.000,999.512
1738836517.865,-263.184,-262.695,-677.246,-255.371,227.051
1738836517.866,999.512,999.512,389.160,999.512,-1000.000
1738836517.870,171.387,171.875,4.883,171.387,-203.125
1738836517.874,-1000.000,-1000.000,-813.477,-1000.000,999.512
1738836517.878,-1000.000,-1000.000,-885.742,-1000.000,999.512
1738836517.882,-255.371,-255.371,-757.324,-260.742,223.633
1738836517.886,999.512,999.512,352.539,999.512,-1000.000
1738836517.890,171.387,164.062,152.344,246.094,-194.824
1738836517.893,-1000.000,-1000.000,-760.742,-997.070,995.605
1738836517.897,-1000.000,-1000.000,-881.836,-1000.000,999.512
1738836517.901,-259.277,-410.156,-837.891,-456.543,404.297
1738836517.905,999.512,999.512,227.539,999.512,-1000.000
1738836517.909,224.121,259.277,140.137,452.637,-367.676
1738836517.912,-1000.000,-1000.000,-839.355,-929.688,950.684
1738836517.916,-1000.000,-1000.000,-835.449,-1000.000,999.512
1738836517.920,-457.520,-588.867,-865.234,-618.164,548.340
1738836517.924,999.512,999.512,55.176,947.266,-1000.000
1738836517.928,426.758,482.422,272.949,685.547,-564.453
1738836517.932,-942.871,-952.637,-630.859,-808.105,889.160
1738836517.936,-1000.000,-1000.000,-774.414,-1000.000,999.512
1738836517.939,-623.047,-802.734,-913.574,-851.562,765.625
1738836517.943,957.031,729.980,-82.031,572.754,-743.652
1738836517.947,642.090,746.582,458.008,960.449,-822.754
1738836517.951,-854.980,-813.477,-453.613,-570.801,725.098
1738836517.955,-1000.000,-1000.000,-837.402,-1000.000,999.512
1738836517.972,-856.934,-990.234,-941.895,-1000.000,935.547
1738836517.976,580.566,326.172,-202.637,161.621,-339.844
1738836517.980,930.664,999.512,469.238,999.512,-1000.000
1738836517.984,-615.723,-513.672,-428.223,-270.508,323.242
1738836517.988,-1000.000,-1000.000,-829.102,-1000.000,999.512
1738836517.992,-1000.000,-1000.000,-930.176,-1000.000,999.512
1738836517.996,160.156,36.133,-367.676,-60.059,-35.645
1738836517.999,999.512,999.512,486.328,999.512,-1000.000
1738836518.003,-270.508,-206.543,-306.152,-60.059,101.562
1738836518.007,-1000.000,-1000.000,-796.387,-1000.000,999.512
1738836518.011,-1000.000,-1000.000,-883.301,-1000.000,999.512
1738836518.015,-60.059,-172.852,-552.734,-270.508,159.180
1738836518.017,999.512,999.512,455.566,999.512,-1000.000
1738836518.021,-60.547,14.648,-112.305,171.387,-47.363
1738836518.025,-1000.000,-1000.000,-835.938,-1000.000,999.512
1738836518.029,-1000.000,-1000.000,-916.016,-1000.000,999.512
1738836518.033,-270.996,-266.113,-646.484,-255.371,234.863
1738836518.037,999.512,999.512,437.012,999.512,-1000.000
1738836518.041,171.387,171.875,-9.766,171.387,-203.125
1738836518.044,-1000.000,-1000.000,-841.309,-1000.000,999.512
1738836518.048,-1000.000,-1000.000,-864.746,-1000.000,999.512
1738836518.052,-255.859,-255.371,-685.059,-255.371,223.633
1738836518.056,999.512,999.512,358.887,999.512,-1000.000
1738836518.060,171.387,167.480,74.219,162.598,-198.242
1738836518.061,-1000.000,-1000.000,-789.062,-1000.000,998.535
1738836518.065,-1000.000,-1000.000,-846.680,-1000.000,999.512
1738836518.069,-255.859,-337.402,-820.312,-446.777,321.289
1738836518.073,999.512,999.512,234.375,999.512,-1000.000
1738836518.077,163.574,212.891,206.055,384.277,-258.789
1738836518.081,-1000.000,-1000.000,-739.746,-962.891,981.934
1738836518.085,-1000.000,-1000.000,-846.191,-1000.000,999.512
1738836518.088,-427.246,-525.879,-857.422,-603.516,526.855
1738836518.092,999.512,999.512,178.223,983.398,-1000.000
1738836518.096,380.371,421.387,297.852,600.586,-513.184
1738836518.100,-961.426,-963.867,-731.934,-888.672,906.250
1738836518.104,-1000.000,-1000.000,-826.172,-1000.000,999.512
1738836518.107,-581.543,-722.656,-908.691,-814.941,678.223
1738836518.111,996.582,852.051,-62.012,637.695,-855.957
1738836518.115,594.238,655.762,342.773,919.434,-799.805
1738836518.119,-879.395,-874.023,-563.477,-603.516,717.773
1738836518.123,-1000.000,-1000.000,-790.527,-1000.000,999.512
1738836518.127,-732.910,-934.082,-923.828,-954.590,897.949
1738836518.131,744.141,457.520,-163.574,304.688,-470.215
1738836518.134,902.344,956.543,500.488,999.512,-1000.000
1738836518.138,-598.633,-600.586,-385.254,-268.066,517.090
1738836518.142,-1000.000,-1000.000,-842.773,-1000.000,999.512
1738836518.146,-934.082,-1000.000,-967.773,-1000.000,999.512
1738836518.150,342.285,104.004,-254.395,20.508,-101.074
1738836518.152,999.512,999.512,525.391,999.512,-1000.000
1738836518.156,-267.578,-285.645,-366.699,-69.336,156.250
1738836518.160,-1000.000,-1000.000,-844.238,-1000.000,999.512
1738836518.164,-1000.000,-1000.000,-934.570,-1000.000,999.512
1738836518.168,42.480,-113.770,-522.949,-181.152,102.051
1738836518.172,999.512,999.512,470.703,999.512,-1000.000
1738836518.176,-64.941,-60.059,-145.020,145.508,-14.648
1738836518.179,-1000.000,-1000.000,-779.297,-1000.000,999.512
1738836518.183,-1000.000,-1000.000,-843.262,-1000.000,999.512
1738836518.187,-167.480,-269.043,-654.297,-256.348,229.004
1738836518.191,999.512,999.512,418.945,999.512,-1000.000
1738836518.195,133.789,148.438,-24.414,171.387,-201.660
1738836518.197,-1000.000,-1000.000,-821.289,-1000.000,999.512
1738836518.201,-1000.000,-1000.000,-891.113,-1000.000,999.512
1738836518.205,-257.324,-256.836,-694.824,-255.371,223.633
1738836518.209,999.512,999.512,391.113,999.512,-1000.000
1738836518.213,171.387,169.434,51.270,166.504,-198.730
1738836518.217,-1000.000,-1000.000,-783.691,-1000.000,999.512
1738836518.221,-1000.000,-1000.000,-830.078,-1000.000,999.512
1738836518.224,-255.371,-295.410,-719.238,-362.305,308.594
1738836518.228,999.512,999.512,347.656,999.512,-1000.000
1738836518.232,166.016,167.969,104.004,309.570,-261.230
1738836518.236,-1000.000,-1000.000,-803.711,-982.910,981.445
1738836518.240,-1000.000,-1000.000,-792.969,-1000.000,999.512
1738836518.242,-361.328,-482.422,-864.258,-545.898,459.961
1738836518.246,999.512,999.512,156.738,999.512,-1000.000
1738836518.250,273.926,359.375,224.121,497.559,-454.102
1738836518.254,-998.047,-982.422,-768.555,-932.617,923.340
1738836518.258,-1000.000,-1000.000,-838.379,-1000.000,999.512
1738836518.262,-549.316,-667.480,-893.066,-751.465,637.207
1738836518.266,999.512,931.152,47.363,780.762,-926.270
1738836518.269,497.559,577.148,354.004,777.832,-711.426
1738836518.273,-932.617,-920.898,-666.016,-762.207,794.434
1738836518.277,-1000.000,-1000.000,-834.961,-1000.000,999.512
1738836518.281,-751.465,-877.930,-929.199,-951.172,833.008
1738836518.285,780.273,577.637,-151.855,374.023,-572.266
1738836518.287,776.855,874.512,402.344,999.512,-1000.000
1738836518.291,-762.207,-690.918,-493.652,-449.707,512.695
1738836518.295,-1000.000,-1000.000,-822.266,-1000.000,999.512
1738836518.299,-951.660,-1000.000,-966.309,-1000.000,988.770
1738836518.332,-1000.000,-1000.000,-833.984,-1000.000,999.512
1738836518.336,-1000.000,-1000.000,-911.621,-1000.000,999.512
1738836518.340,-167.480,-247.559,-606.934,-263.184,209.473
1738836518.344,999.512,999.512,399.414,999.512,-1000.000
1738836518.348,55.176,99.121,-85.449,171.875,-170.410
1738836518.352,-1000.000,-1000.000,-793.457,-1000.000,999.512
1738836518.356,-1000.000,-1000.000,-876.465,-1000.000,999.512
1738836518.359,-263.184,-260.254,-689.453,-254.883,226.074
1738836518.363,999.512,999.512,396.484,999.512,-1000.000
1738836518.367,171.387,171.875,96.191,168.945,-202.148
1738836518.371,-1000.000,-1000.000,-767.578,-1000.000,999.512
1738836518.375,-1000.000,-1000.000,-895.996,-1000.000,999.512
1738836518.391,-255.371,-255.371,-752.930,-315.918,241.211
1738836518.395,999.512,999.512,352.539,999.512,-1000.000
1738836518.399,169.922,163.574,81.543,269.531,-214.844
1738836518.403,-1000.000,-1000.000,-843.750,-995.605,989.746
1738836518.407,-1000.000,-1000.000,-837.891,-1000.000,999.512
1738836518.411,-284.180,-423.828,-800.293,-489.746,426.758
1738836518.415,999.512,999.512,221.191,999.512,-1000.000
1738836518.418,264.648,296.387,171.875,485.840,-386.719
1738836518.422,-993.652,-996.582,-748.047,-918.457,945.801
1738836518.426,-1000.000,-1000.000,-762.695,-1000.000,999.512
1738836518.430,-456.055,-600.586,-894.531,-612.305,561.523
1738836518.434,999.512,999.512,58.105,932.617,-1000.000
1738836518.436,478.516,515.625,314.941,744.629,-597.656
1738836518.440,-915.527,-937.988,-689.941,-744.141,868.652
1738836518.444,-1000.000,-1000.000,-854.980,-1000.000,999.512
1738836518.448,-619.629,-828.125,-934.082,-848.145,777.344
1738836518.452,951.172,706.543,-102.539,571.289,-691.406
1738836518.456,681.152,731.445,390.625,970.703,-924.316
1738836518.460,-836.426,-857.910,-544.922,-556.641,613.770
1738836518.463,-1000.000,-1000.000,-837.891,-1000.000,999.512
1738836518.467,-842.285,-1000.000,-904.297,-1000.000,988.281
1738836518.471,551.270,283.691,-166.504,149.902,-217.285
1738836518.475,999.512,999.512,438.965,999.512,-1000.000
1738836518.479,-475.098,-483.398,-435.547,-186.523,281.250
1738836518.481,-1000.000,-1000.000,-820.312,-1000.000,999.512
1738836518.485,-1000.000,-1000.000,-938.965,-1000.000,999.512
1738836518.489,153.809,8.789,-402.344,-61.523,-28.320
1738836518.493,999.512,999.512,518.066,999.512,-1000.000
1738836518.497,-202.637,-187.988,-208.984,0.000,83.496
1738836518.501,-1000.000,-1000.000,-823.242,-1000.000,999.512
1738836518.505,-1000.000,-1000.000,-934.570,-1000.000,999.512
1738836518.508,-57.617,-207.031,-510.254,-266.113,184.082
1738836518.512,999.512,999.512,529.785,999.512,-1000.000
1738836518.516,-44.434,30.762,-112.793,171.387,-123.535
1738836518.520,-1000.000,-1000.000,-858.887,-1000.000,999.512
1738836518.524,-1000.000,-1000.000,-878.418,-1000.000,999.512
1738836518.526,-269.531,-265.137,-643.555,-255.371,229.004
1738836518.530,999.512,999.512,375.000,999.512,-1000.000
1738836518.534,170.898,171.875,-2.930,171.387,-203.125
1738836518.538,-1000.000,-1000.000,-794.434,-1000.000,999.512
1738836518.542,-1000.000,-1000.000,-887.695,-1000.000,999.512
1738836518.546,-255.371,-255.371,-730.469,-255.371,223.633
1738836518.550,999.512,999.512,377.930,999.512,-1000.000
1738836518.553,170.898,166.016,137.207,162.109,-196.777
1738836518.557,-1000.000,-1000.000,-759.766,-1000.000,997.070
1738836518.561,-1000.000,-1000.000,-878.418,-1000.000,999.512
1738836518.565,-255.859,-369.629,-831.055,-461.914,356.934
1738836518.569,999.512,999.512,263.184,999.512,-1000.000
1738836518.571,161.621,232.910,123.047,386.230,-335.938
1738836518.575,-1000.000,-1000.000,-849.609,-964.355,956.543
1738836518.579,-1000.000,-1000.000,-830.078,-1000.000,999.512
1738836518.583,-461.914,-549.316,-858.887,-628.906,527.832
1738836518.587,999.512,999.512,87.402,966.797,-1000.000
1738836518.591,386.230,454.590,263.672,606.445,-531.738
1738836518.595,-964.355,-953.613,-654.785,-894.531,898.926
1738836518.598,-1000.000,-1000.000,-759.277,-1000.000,999.512
1738836518.602,-606.445,-744.629,-909.668,-858.398,701.660
1738836518.606,980.469,813.477,-78.613,581.055,-819.824
1738836518.610,600.586,700.195,397.949,931.641,-822.266
1738836518.614,-888.672,-839.844,-532.715,-615.723,703.613
1738836518.617,-1000.000,-1000.000,-832.031,-1000.000,999.512
1738836518.621,-814.941,-945.801,-940.430,-1000.000,921.387
1738836518.625,637.207,424.316,-149.414,160.156,-384.277
1738836518.629,921.875,982.910,471.191,999.512,-1000.000
1738836518.633,-612.305,-567.383,-449.219,-269.531,380.859
1738836518.637,-1000.000,-1000.000,-821.777,-1000.000,999.512
1738836518.641,-1000.000,-1000.000,-901.855,-1000.000,999.512
1738836518.644,186.035,83.496,-301.758,-50.293,-62.988
1738836518.648,999.512,999.512,450.195,999.512,-1000.000
1738836518.652,-264.160,-249.023,-335.938,-57.617,128.418
1738836518.656,-1000.000,-1000.000,-819.824,-1000.000,999.512
1738836518.660,-1000.000,-1000.000,-924.805,-1000.000,999.512
1738836518.661,42.480,-132.812,-506.836,-221.191,125.488
1738836518.665,999.512,999.512,489.746,999.512,-1000.000
1738836518.669,-64.941,-27.344,-148.438,164.551,-63.477
1738836518.673,-1000.000,-1000.000,-838.867,-1000.000,999.512
1738836518.677,-1000.000,-1000.000,-909.180,-1000.000,999.512
1738836518.681,-168.945,-267.578,-611.816,-255.371,233.398
1738836518.685,999.512,999.512,514.160,999.512,-1000.000
1738836518.688,156.250,156.738,-2.441,171.875,-202.637
1738836518.692,-1000.000,-1000.000,-843.262,-1000.000,999.512
1738836518.696,-1000.000,-1000.000,-901.855,-1000.000,999.512
1738836518.700,-255.371,-256.348,-701.172,-255.371,223.633
1738836518.704,999.512,999.512,424.316,999.512,-1000.000
1738836518.721,171.387,168.457,50.781,166.504,-199.707
1738836518.725,-1000.000,-1000.000,-823.242,-1000.000,999.512
1738836518.729,-1000.000,-1000.000,-867.676,-1000.000,999.512
1738836518.733,-255.371,-312.500,-806.152,-364.746,286.133
1738836518.737,999.512,999.512,279.297,999.512,-1000.000
1738836518.741,166.016,182.617,160.156,357.422,-250.977
1738836518.745,-1000.000,-1000.000,-788.086,-961.914,979.980
1738836518.748,-1000.000,-1000.000,-833.008,-1000.000,999.512
1738836518.752,-364.258,-507.324,-858.398,-541.504,498.535
1738836518.756,999.512,999.512,194.824,999.512,-1000.000
1738836518.760,349.121,379.883,298.340,565.430,-478.027
1738836518.764,-965.332,-979.004,-746.094,-889.160,918.457
1738836518.766,-1000.000,-1000.000,-839.355,-1000.000,999.512
1738836518.770,-542.480,-696.289,-894.531,-737.793,645.020
1738836518.774,999.512,898.438,-35.156,754.395,-908.203
1738836518.778,543.945,596.191,310.547,869.629,-746.094
1738836518.782,-902.344,-918.457,-608.398,-642.090,763.672
1738836518.786,-1000.000,-1000.000,-797.363,-1000.000,999.512
1738836518.790,-743.164,-905.762,-928.711,-943.359,850.098
1738836518.793,765.137,526.855,-179.688,362.305,-563.965
1738836518.797,828.125,902.832,482.910,999.512,-970.703
1738836518.801,-695.312,-666.504,-343.750,-375.000,576.172
1738836518.805,-1000.000,-1000.000,-794.434,-1000.000,999.512
1738836518.809,-950.195,-1000.000,-954.102,-1000.000,999.512
1738836518.811,375.000,135.742,-243.164,49.316,-155.273
1738836518.815,999.512,999.512,489.258,999.512,-1000.000
1738836518.819,-450.195,-335.449,-384.277,-148.926,192.871
1738836518.823,-1000.000,-1000.000,-819.336,-1000.000,999.512
1738836518.827,-1000.000,-1000.000,-925.293,-1000.000,999.512
1738836518.831,48.340,-77.148,-444.824,-166.016,67.871
1738836518.835,999.512,999.512,520.020,999.512,-1000.000
1738836518.838,-167.480,-95.703,-185.059,58.105,-3.418
1738836518.842,-1000.000,-1000.000,-785.645,-1000.000,999.512
1738836518.846,-1000.000,-1000.000,-849.121,-1000.000,999.512
1738836518.850,-167.480,-262.207,-616.699,-262.695,214.355
1738836518.854,999.512,999.512,438.477,999.512,-1000.000
1738836518.856,55.176,127.441,-42.480,171.387,-154.297
1738836518.860,-1000.000,-1000.000,-827.148,-1000.000,999.512
1738836518.864,-1000.000,-1000.000,-904.785,-1000.000,999.512
1738836518.868,-263.184,-258.789,-691.406,-255.371,227.539
1738836518.872,999.512,999.512,403.809,999.512,-1000.000
1738836518.876,170.898,170.898,48.828,166.504,-200.195
1738836518.880,-1000.000,-1000.000,-815.430,-1000.000,999.512
1738836518.883,-1000.000,-1000.000,-850.098,-1000.000,999.512
1738836518.887,-255.371,-266.602,-703.613,-361.328,278.809
1738836518.891,999.512,999.512,319.824,999.512,-1000.000
1738836518.895,168.945,164.551,74.707,274.414,-238.281
1738836518.899,-1000.000,-1000.000,-822.754,-998.047,985.840
1738836518.902,-1000.000,-1000.000,-861.816,-1000.000,999.512
1738836518.906,-307.617,-443.848,-829.590,-548.828,442.383
1738836518.910,999.512,999.512,198.730,999.512,-1000.000
1738836518.914,267.578,330.566,273.438,498.047,-368.652
1738836518.918,-995.117,-985.840,-693.359,-932.129,957.520
1738836518.922,-1000.000,-1000.000,-862.793,-1000.000,999.512
1738836518.926,-480.957,-611.816,-884.766,-745.117,592.285
1738836518.929,999.512,990.723,98.145,787.598,-993.164
1738836518.933,483.887,529.785,329.590,775.879,-628.906
1738836518.937,-923.828,-934.082,-694.336,-759.766,847.656
1738836518.941,-1000.000,-1000.000,-854.492,-1000.000,999.512
1738836518.945,-706.055,-834.961,-937.012,-934.570,781.250
1738836518.946,829.590,661.621,-125.000,399.902,-670.898
1738836518.950,764.648,814.453,372.070,999.512,-955.566
1738836518.954,-747.070,-747.559,-536.621,-446.289,566.895
1738836518.958,-1000.000,-1000.000,-844.238,-1000.000,999.512
1738836518.962,-838.867,-1000.000,-947.754,-1000.000,974.121
1738836518.966,546.875,253.418,-221.191,97.168,-273.926
1738836518.970,999.512,999.512,504.883,999.512,-1000.000
1738836518.973,-442.383,-437.012,-293.945,-165.527,347.168
1738836518.977,-1000.000,-1000.000,-795.898,-1000.000,999.512
1738836518.981,-1000.000,-1000.000,-963.379,-1000.000,999.512
1738836518.985,151.855,-8.301,-386.230,-83.496,0.488
1738836518.989,999.512,999.512,494.629,999.512,-1000.000
1738836518.991,-184.082,-166.016,-283.691,44.922,72.266
1738836518.995,-1000.000,-1000.000,-873.047,-1000.000,999.512
1738836518.999,-1000.000,-1000.000,-923.828,-1000.000,999.512
1738836519.003,-54.688,-210.938,-565.430,-263.184,171.387
1738836519.007,999.512,999.512,419.922,999.512,-1000.000
1738836519.011,-58.105,25.879,-118.164,171.875,-111.816
1738836519.015,-1000.000,-1000.000,-814.453,-1000.000,999.512
1738836519.018,-1000.000,-1000.000,-861.328,-1000.000,999.512
1738836519.022,-233.398,-265.625,-653.809,-255.371,229.980
1738836519.026,999.512,999.512,405.762,999.512,-1000.000
1738836519.030,165.527,171.387,28.320,171.875,-203.125
1738836519.034,-1000.000,-1000.000,-840.820,-1000.000,999.512
1738836519.036,-1000.000,-1000.000,-916.992,-1000.000,999.512
1738836519.040,-255.859,-255.371,-705.078,-255.371,223.633
1738836519.044,999.512,999.512,369.629,999.512,-1000.000
1738836519.048,171.387,166.016,66.895,166.016,-196.289
1738836519.052,-1000.000,-1000.000,-833.008,-1000.000,997.070
1738836519.056,-1000.000,-1000.000,-844.727,-1000.000,999.512
1738836519.060,-255.371,-362.793,-742.188,-365.234,362.305
1738836519.063,999.512,999.512,253.418,999.512,-1000.000
1738836519.067,163.086,223.145,101.562,371.094,-331.543
1738836519.071,-1000.000,-1000.000,-787.109,-956.055,958.984
1738836519.075,-1000.000,-1000.000,-794.922,-1000.000,999.512
1738836519.079,-432.617,-530.762,-856.934,-540.527,523.438
1738836519.096,999.512,999.512,109.863,999.512,-1000.000
1738836519.100,382.812,434.570,255.371,585.938,-529.785
1738836519.104,-961.914,-958.984,-715.332,-875.977,897.949
1738836519.108,-1000.000,-1000.000,-873.535,-1000.000,999.512
1738836519.112,-540.527,-734.375,-908.203,-733.398,689.941
1738836519.116,999.512,835.449,-43.945,744.629,-835.449
1738836519.120,585.449,668.945,335.938,902.832,-813.477
1738836519.123,-875.977,-865.234,-604.980,-598.633,703.125
1738836519.127,-1000.000,-1000.000,-865.234,-1000.000,999.512
1738836519.131,-732.910,-940.918,-909.668,-934.082,878.906
1738836519.135,744.141,442.871,-157.715,342.773,-469.238
1738836519.139,901.855,963.867,423.340,999.512,-1000.000
1738836519.156,-598.633,-592.285,-445.801,-268.066,414.551
1738836519.160,-1000.000,-1000.000,-833.008,-1000.000,999.512
1738836519.164,-934.082,-1000.000,-938.965,-1000.000,999.512
1738836519.168,342.285,92.285,-311.523,44.922,-138.184
1738836519.172,999.512,999.512,482.910,999.512,-1000.000
1738836519.176,-267.578,-267.578,-310.059,-84.473,158.203
1738836519.180,-1000.000,-1000.000,-864.258,-1000.000,999.512
1738836519.183,-1000.000,-1000.000,-964.355,-1000.000,999.512
1738836519.187,43.945,-125.488,-434.570,-167.480,116.699
1738836519.191,999.512,999.512,510.254,999.512,-1000.000
1738836519.195,-80.078,-47.852,-174.805,126.953,-58.105
1738836519.199,-1000.000,-1000.000,-838.867,-1000.000,999.512
1738836519.187,-1000.000,-1000.000,-908.691,-1000.000,999.512
1738836519.191,-167.969,-268.066,-611.328,-257.812,228.516
1738836519.195,999.512,999.512,405.762,999.512,-1000.000
1738836519.199,127.441,150.879,-29.297,171.875,-202.148
1738836519.203,-1000.000,-1000.000,-803.711,-1000.000,999.512
1738836519.207,-1000.000,-1000.000,-876.953,-1000.000,999.512
1738836519.211,-257.812,-256.836,-679.688,-255.371,223.633
1738836519.214,999.512,999.512,369.141,999.512,-1000.000
1738836519.218,170.898,168.945,61.035,168.457,-200.195
1738836519.222,-1000.000,-1000.000,-822.266,-1000.000,999.512
1738836519.226,-1000.000,-1000.000,-892.090,-1000.000,999.512
1738836519.230,-255.371,-300.781,-759.766,-325.684,276.855
1738836519.231,999.512,999.512,371.582,999.512,-1000.000
1738836519.235,165.527,168.945,136.230,296.387,-268.066
1738836519.239,-1000.000,-1000.000,-873.047,-985.840,973.145
1738836519.243,-1000.000,-1000.000,-857.910,-1000.000,999.512
1738836519.247,-361.328,-495.117,-794.922,-458.984,472.168
1738836519.251,999.512,999.512,162.109,999.512,-1000.000
1738836519.255,274.414,364.258,242.188,486.816,-456.055
1738836519.258,-998.047,-982.422,-679.199,-913.574,923.340
1738836519.262,-1000.000,-1000.000,-775.879,-1000.000,999.512
1738836519.266,-539.062,-672.852,-857.910,-635.742,613.281
1738836519.270,999.512,922.852,-25.879,906.250,-948.730
1738836519.274,495.117,586.914,352.539,750.488,-704.102
1738836519.276,-929.199,-917.480,-600.586,-744.141,792.969
1738836519.280,-1000.000,-1000.000,-873.535,-1000.000,999.512
1738836519.284,-715.332,-887.695,-914.062,-838.867,823.730
1738836519.288,819.336,557.129,-125.000,547.363,-583.496
1738836519.292,769.531,888.184,411.621,999.512,-1000.000
1738836519.296,-760.742,-678.223,-472.168,-442.383,512.695
1738836519.300,-1000.000,-1000.000,-867.676,-1000.000,999.512
1738836519.303,-951.660,-1000.000,-901.367,-1000.000,999.512
1738836519.307,373.535,163.086,-172.852,150.391,-127.441
1738836519.311,999.512,999.512,458.008,999.512,-1000.000
1738836519.315,-444.824,-345.215,-380.371,-168.945,187.988
1738836519.319,-1000.000,-1000.000,-849.609,-1000.000,999.512
1738836519.321,-1000.000,-1000.000,-938.477,-1000.000,999.512
1738836519.325,116.699,-49.316,-432.617,-64.453,36.133
1738836519.329,999.512,999.512,485.840,999.512,-1000.000
1738836519.333,-171.875,-103.027,-181.641,42.969,7.324
1738836519.366,999.512,999.512,367.188,999.512,-1000.000
1738836519.370,171.387,171.875,23.926,171.875,-202.637
1738836519.374,-1000.000,-1000.000,-817.383,-1000.000,999.512
1738836519.378,-1000.000,-1000.000,-892.578,-1000.000,999.512
1738836519.382,-255.371,-254.883,-733.398,-262.207,232.422
1738836519.386,999.512,999.512,346.191,999.512,-1000.000
1738836519.390,170.898,163.086,195.312,276.855,-197.266
1738836519.393,-1000.000,-1000.000,-734.863,-985.352,994.629
1738836519.397,-1000.000,-1000.000,-888.672,-1000.000,999.512
1738836519.401,-261.719,-436.523,-827.148,-454.590,431.152
1738836519.405,999.512,999.512,195.801,999.512,-1000.000
1738836519.409,258.789,334.961,224.121,479.492,-425.293
1738836519.412,-990.723,-982.910,-744.629,-915.527,927.734
1738836519.416,-1000.000,-1000.000,-864.258,-1000.000,999.512
1738836519.420,-522.461,-609.863,-869.629,-619.141,564.941
1738836519.424,999.512,988.770,43.457,951.172,-1000.000
1738836519.428,491.699,554.199,288.086,689.453,-654.785
1738836519.432,-921.387,-918.945,-637.695,-831.055,819.824
1738836519.436,-1000.000,-1000.000,-809.570,-1000.000,999.512
1738836519.439,-612.305,-831.055,-914.551,-839.355,767.090
1738836519.443,931.641,652.832,-111.816,544.922,-706.543
1738836519.447,745.117,845.215,472.656,999.512,-901.367
1738836519.451,-743.164,-710.449,-422.852,-442.383,638.672
1738836519.455,-1000.000,-1000.000,-857.910,-1000.000,999.512
1738836519.472,-839.355,-1000.000,-944.336,-1000.000,961.426
1738836519.476,546.875,241.211,-207.031,150.391,-263.184
1738836519.480,999.512,999.512,512.207,999.512,-1000.000
1738836519.484,-444.336,-402.344,-373.535,-168.945,238.281
1738836519.488,-1000.000,-1000.000,-864.258,-1000.000,999.512
1738836519.492,-1000.000,-1000.000,-893.066,-1000.000,999.512
1738836519.496,123.047,-14.648,-312.988,-64.453,2.441
1738836519.499,999.512,999.512,498.047,999.512,-1000.000
1738836519.503,-166.992,-136.230,-232.910,42.480,41.016
1738836519.507,-1000.000,-1000.000,-822.754,-1000.000,999.512
1738836519.511,-1000.000,-1000.000,-921.875,-1000.000,999.512
1738836519.515,-64.941,-228.516,-550.781,-263.184,185.547
1738836519.516,999.512,999.512,478.027,999.512,-1000.000
1738836519.520,41.992,90.332,-75.195,171.875,-158.203
1738836519.524,-1000.000,-1000.000,-855.957,-1000.000,999.512
1738836519.528,-1000.000,-1000.000,-912.598,-1000.000,999.512
1738836519.532,-263.184,-260.742,-632.812,-255.371,226.562
1738836519.536,999.512,999.512,431.641,999.512,-1000.000
1738836519.540,170.898,171.387,33.691,171.387,-201.660
1738836519.543,-1000.000,-1000.000,-827.637,-1000.000,999.512
1738836519.547,-1000.000,-1000.000,-872.070,-1000.000,999.512
1738836519.551,-255.371,-255.371,-638.184,-261.719,249.512
1738836519.555,999.512,999.512,380.371,999.512,-1000.000
1738836519.559,171.387,164.551,67.871,261.719,-200.195
1738836519.562,-1000.000,-1000.000,-833.008,-991.699,998.535
1738836519.566,-1000.000,-1000.000,-883.789,-1000.000,999.512
1738836519.570,-260.254,-400.391,-819.824,-455.566,368.652
1738836519.574,999.512,999.512,212.891,999.512,-1000.000
1738836519.578,239.258,275.879,189.941,479.004,-366.699
1738836519.582,-999.512,-1000.000,-763.184,-915.527,945.312
1738836519.586,-1000.000,-1000.000,-864.746,-1000.000,999.512
1738836519.589,-456.055,-581.543,-873.535,-612.305,545.410
1738836519.593,999.512,999.512,130.371,932.129,-1000.000
1738836519.597,407.227,484.863,330.078,745.605,-569.824
1738836519.601,-952.637,-950.195,-705.078,-742.676,883.301
1738836519.605,-1000.000,-1000.000,-865.234,-1000.000,999.512
1738836519.607,-626.465,-807.617,-914.062,-838.867,733.398
1738836519.611,963.379,723.633,-80.078,547.363,-750.977
1738836519.615,616.699,747.070,354.492,999.512,-901.367
1738836519.619,-882.812,-811.523,-561.523,-442.383,616.211
1738836519.623,-1000.000,-1000.000,-823.730,-1000.000,999.512
1738836519.627,-856.934,-975.586,-914.062,-1000.000,921.387
1738836519.631,578.613,348.145,-180.664,152.344,-386.719
1738836519.634,937.012,999.512,529.297,999.512,-1000.000
1738836519.638,-605.957,-502.930,-353.027,-168.945,399.414
1738836519.642,-1000.000,-1000.000,-861.816,-1000.000,999.512
1738836519.646,-1000.000,-1000.000,-949.219,-1000.000,999.512
1738836519.650,159.668,42.969,-288.574,-64.453,-52.246
1738836519.652,999.512,999.512,524.902,999.512,-1000.000
1738836519.656,-270.508,-201.172,-339.844,42.480,93.262
1738836519.660,-1000.000,-1000.000,-870.117,-1000.000,999.512
1738836519.664,-1000.000,-1000.000,-925.781,-1000.000,999.512
1738836519.668,-60.059,-162.109,-521.973,-263.184,145.020
1738836519.672,999.512,999.512,469.238,999.512,-1000.000
1738836519.676,-58.594,18.066,-109.375,171.875,-106.445
1738836519.679,-1000.000,-1000.000,-794.922,-1000.000,999.512
1738836519.683,-1000.000,-1000.000,-849.609,-1000.000,999.512
1738836519.687,-241.211,-265.625,-656.738,-255.371,229.980
1738836519.691,999.512,999.512,402.344,999.512,-1000.000
1738836519.695,166.992,171.875,26.367,171.387,-202.637
1738836519.697,-1000.000,-1000.000,-828.125,-1000.000,999.512
1738836519.701,-1000.000,-1000.000,-912.598,-1000.000,999.512
1738836519.705,-255.371,-255.371,-704.102,-258.789,223.633
1738836519.709,999.512,999.512,375.488,999.512,-1000.000
1738836519.713,171.387,167.480,62.500,219.727,-195.801
1738836519.717,-1000.000,-1000.000,-835.449,-1000.000,996.094
1738836519.721,-1000.000,-1000.000,-838.379,-1000.000,999.512
1738836519.724,-255.371,-334.473,-733.398,-397.949,372.070
1738836519.728,999.512,999.512,258.301,999.512,-1000.000
1738836519.732,165.527,218.262,98.145,417.969,-330.566
1738836519.736,-1000.000,-1000.000,-841.309,-937.988,961.426
1738836519.740,-1000.000,-1000.000,-839.355,-1000.000,999.512
1738836519.757,-365.234,-520.996,-854.492,-541.016,499.023
1738836519.761,999.512,999.512,108.887,999.512,-1000.000
1738836519.765,370.605,436.035,277.832,588.379,-513.672
1738836519.769,-956.055,-955.566,-699.707,-875.488,901.367
1738836519.773,-1000.000,-1000.000,-862.305,-1000.000,999.512
1738836519.777,-545.898,-715.332,-888.672,-734.375,677.246
1738836519.781,999.512,854.980,28.809,742.676,-850.098
1738836519.784,586.426,669.434,392.578,903.320,-815.918
1738836519.788,-876.465,-857.910,-625.488,-598.633,693.848
1738836519.792,-1000.000,-1000.000,-868.164,-1000.000,999.512
1738836519.796,-733.398,-923.340,-933.105,-934.082,859.863
1738836519.800,744.141,467.285,-166.504,342.773,-490.234
1738836519.786,902.344,967.285,425.293,999.512,-1000.000
1738836519.790,-598.633,-582.520,-465.820,-267.090,388.672
1738836519.794,-1000.000,-1000.000,-842.285,-1000.000,999.512
1738836519.798,-934.082,-1000.000,-932.129,-1000.000,999.512
1738836519.802,342.285,107.910,-327.637,42.480,-155.273
1738836519.806,999.512,999.512,513.672,999.512,-1000.000
1738836519.810,-267.578,-266.602,-236.816,-64.453,209.473
1738836519.813,-1000.000,-1000.000,-849.121,-1000.000,999.512
1738836519.817,-1000.000,-1000.000,-951.660,-1000.000,999.512
1738836519.821,44.434,-108.398,-424.805,-168.945,91.797
1738836519.825,999.512,999.512,599.609,999.512,-1000.000
1738836519.829,-83.008,-53.711,-117.188,156.738,-30.273
1738836519.861,-1000.000,-1000.000,-870.605,-1000.000,999.512
1738836519.865,-1000.000,-1000.000,-911.621,-1000.000,999.512
1738836519.869,-167.480,-268.555,-622.559,-255.371,224.609
1738836519.873,999.512,999.512,398.438,999.512,-1000.000
1738836519.877,119.629,148.926,-54.199,171.875,-201.172
1738836519.881,-1000.000,-1000.000,-832.031,-1000.000,999.512
1738836519.885,-1000.000,-1000.000,-885.254,-1000.000,999.512
1738836519.888,-258.301,-256.836,-672.852,-255.371,223.633
1738836519.892,999.512,999.512,383.789,999.512,-1000.000
1738836519.896,171.387,169.922,116.211,166.504,-200.684
1738836519.900,-1000.000,-1000.000,-755.371,-1000.000,999.512
1738836519.904,-1000.000,-1000.000,-905.762,-1000.000,999.512
1738836519.891,-255.371,-290.527,-772.461,-365.234,268.555
1738836519.895,999.512,999.512,320.801,999.512,-1000.000
1738836519.899,180.664,181.641,100.098,393.555,-270.508
1738836519.903,-1000.000,-1000.000,-868.652,-1000.000,999.512
1738836519.907,-1000.000,-997.559,-825.195,-975.586,970.703
1738836519.911,-180.176,-299.316,-707.520,-262.695,284.180
1738836519.915,999.512,999.512,230.469,999.512,-1000.000
1738836519.918,275.391,360.352,225.098,578.613,-460.938
1738836519.922,-990.723,-974.609,-703.613,-859.375,913.086
1738836519.926,-1000.000,-1000.000,-814.941,-1000.000,999.512
1738836519.930,-548.828,-656.738,-843.750,-676.758,611.816
1738836519.934,999.512,940.430,60.547,833.008,-968.262
1738836519.936,497.070,583.008,390.137,892.090,-623.535
1738836519.940,-932.617,-915.039,-512.207,-597.656,866.211
1738836519.944,-1000.000,-1000.000,-852.539,-1000.000,999.512
1738836519.948,-751.465,-871.582,-939.453,-930.664,817.383
1738836519.952,780.273,583.008,-128.418,348.633,-598.633
1738836519.956,776.855,879.395,423.828,999.512,-1000.000
1738836519.960,-762.207,-682.617,-486.816,-268.066,507.324
1738836519.963,-1000.000,-1000.000,-859.375,-1000.000,999.512
1738836519.967,-951.172,-1000.000,-897.461,-1000.000,999.512
1738836519.971,373.535,192.383,-200.684,56.152,-149.902
1738836519.975,999.512,999.512,440.918,999.512,-1000.000
1738836519.979,-446.777,-351.074,-392.578,-80.078,199.219
1738836519.981,-1000.000,-1000.000,-846.191,-1000.000,999.512
1738836519.985,-1000.000,-1000.000,-935.547,-1000.000,999.512
1738836519.989,91.309,-35.645,-430.176,-118.164,19.043
1738836519.993,999.512,999.512,492.676,999.512,-1000.000
1738836519.997,-167.969,-108.398,-160.156,113.281,69.824
1738836520.001,-1000.000,-1000.000,-822.266,-1000.000,999.512
1738836520.005,-1000.000,-1000.000,-919.922,-1000.000,999.512
1738836520.008,-115.723,-247.070,-535.645,-257.812,210.449
1738836520.012,999.512,999.512,493.164,999.512,-1000.000
1738836520.016,48.340,112.305,-85.938,171.387,-176.758
1738836520.020,-1000.000,-1000.000,-838.379,-1000.000,999.512
1738836520.024,-1000.000,-1000.000,-887.695,-1000.000,999.512
1738836520.057,-263.184,-259.277,-686.523,-255.371,225.586
1738836520.061,999.512,999.512,354.004,999.512,-1000.000
1738836520.065,170.898,171.875,5.859,171.387,-202.148
1738836520.069,-1000.000,-1000.000,-817.871,-1000.000,999.512
1738836520.073,-1000.000,-1000.000,-886.719,-1000.000,999.512
1738836520.077,-255.371,-255.371,-738.281,-263.184,234.375
1738836520.081,999.512,999.512,347.168,999.512,-1000.000
1738836520.084,171.387,163.574,135.742,261.719,-196.289
1738836520.088,-1000.000,-1000.000,-804.199,-992.188,996.094
1738836520.092,-1000.000,-1000.000,-887.207,-1000.000,999.512
1738836520.096,-261.719,-422.363,-827.637,-455.566,411.621
1738836520.100,999.512,999.512,231.445,999.512,-1000.000
1738836520.071,261.230,301.758,181.152,479.004,-388.184
1738836520.075,-991.699,-994.141,-814.453,-915.527,942.383
1738836520.079,-1000.000,-1000.000,-856.934,-1000.000,999.512
1738836520.083,-455.566,-597.656,-863.770,-619.141,557.129
1738836520.087,999.512,999.512,47.852,950.684,-1000.000
1738836520.091,478.516,517.090,297.852,689.453,-594.727
1738836520.095,-915.527,-936.035,-626.953,-831.055,866.699
1738836520.098,-1000.000,-1000.000,-808.105,-1000.000,999.512
1738836520.102,-617.188,-819.336,-914.551,-841.309,758.789
1738836520.106,948.730,701.660,-120.117,550.781,-743.164
1738836520.110,670.410,758.789,422.852,999.512,-837.402
1738836520.114,-824.219,-807.129,-473.145,-470.703,706.055
1738836520.117,-1000.000,-1000.000,-852.051,-1000.000,999.512
1738836520.121,-854.980,-1000.000,-952.637,-1000.000,940.430
1738836520.125,580.078,299.316,-166.016,150.391,-323.242
1738836520.129,933.105,999.512,533.691,999.512,-1000.000
1738836520.133,-611.816,-503.418,-397.461,-173.828,301.758
1738836520.137,-1000.000,-1000.000,-844.238,-1000.000,999.512
1738836520.141,-1000.000,-1000.000,-891.113,-1000.000,999.512
1738836520.144,159.180,20.996,-312.500,-63.965,18.555
1738836520.148,999.512,999.512,441.895,999.512,-1000.000
1738836520.152,-266.113,-194.336,-302.246,36.133,74.707
1738836520.156,-1000.000,-1000.000,-843.262,-1000.000,999.512
1738836520.160,-1000.000,-1000.000,-928.711,-1000.000,999.512
1738836520.208,-60.059,-188.965,-527.344,-246.094,159.668
1738836520.212,999.512,999.512,461.914,999.512,-1000.000
1738836520.216,-60.547,29.297,-118.652,168.945,-120.605
1738836520.220,-1000.000,-1000.000,-863.281,-1000.000,999.512
1738836520.224,-1000.000,-1000.000,-913.086,-1000.000,999.512
1738836520.228,-270.508,-265.137,-617.676,-255.371,229.004
1738836520.232,999.512,999.512,430.176,999.512,-1000.000
1738836520.235,170.898,171.387,-13.184,171.387,-203.125
1738836520.239,-1000.000,-1000.000,-860.352,-1000.000,999.512
1738836520.243,-1000.000,-1000.000,-869.629,-1000.000,999.512
1738836520.247,-255.371,-255.371,-672.363,-255.371,224.121
1738836520.251,999.512,999.512,347.168,999.512,-1000.000
1738836520.212,171.387,167.969,62.500,166.016,-199.707
1738836520.216,-1000.000,-1000.000,-834.473,-1000.000,999.512
1738836520.220,-1000.000,-1000.000,-876.953,-1000.000,999.512
1738836520.224,-255.371,-328.125,-774.902,-365.234,291.992
1738836520.228,999.512,999.512,262.695,999.512,-1000.000
1738836520.232,165.527,213.379,186.523,371.094,-252.930
1738836520.236,-1000.000,-1000.000,-760.254,-956.055,980.469
1738836520.239,-1000.000,-1000.000,-878.418,-1000.000,999.512
1738836520.243,-365.234,-520.996,-841.309,-540.527,503.906
1738836520.247,999.512,999.512,144.043,999.512,-1000.000
1738836520.251,370.117,422.363,276.855,585.938,-517.090
1738836520.255,-956.055,-962.402,-710.449,-875.977,897.949
1738836520.282,-1000.000,-1000.000,-875.977,-1000.000,999.512
1738836520.286,-557.129,-718.262,-891.602,-732.910,660.156
1738836520.290,999.512,854.980,-41.992,744.629,-870.605
1738836520.294,588.867,659.668,328.125,902.832,-811.035
1738836520.298,-877.441,-866.699,-577.637,-597.656,702.637
1738836520.302,-1000.000,-1000.000,-800.781,-1000.000,999.512
1738836520.306,-732.910,-920.410,-827.637,-929.199,905.762
1738836520.309,744.141,476.562,-79.102,359.863,-414.551
1738836520.313,902.344,958.008,458.008,999.512,-1000.000
1738836520.317,-598.633,-594.238,-441.406,-294.922,386.719
1738836520.321,-1000.000,-1000.000,-880.371,-1000.000,999.512
1738836520.325,-938.477,-1000.000,-941.895,-1000.000,999.512
1738836520.312,352.539,111.328,-256.348,67.871,-145.020
1738836520.316,999.512,999.512,481.445,999.512,-1000.000
1738836520.320,-322.754,-288.086,-355.469,-88.867,150.879
1738836520.324,-1000.000,-1000.000,-861.816,-1000.000,999.512
1738836520.328,-1000.000,-1000.000,-918.945,-1000.000,999.512
1738836520.332,46.387,-108.887,-431.641,-114.746,84.961
1738836520.336,999.512,999.512,495.605,999.512,-1000.000
1738836520.339,-113.770,-62.988,-153.320,121.582,-14.648
1738836520.343,-1000.000,-1000.000,-830.078,-1000.000,999.512
1738836520.347,-1000.000,-1000.000,-898.926,-1000.000,999.512
1738836520.351,-167.969,-269.043,-596.191,-257.324,217.285
1738836520.355,999.512,999.512,411.133,999.512,-1000.000
1738836520.360,104.980,147.461,30.762,171.875,-166.504
1738836520.364,-1000.000,-1000.000,-757.812,-1000.000,999.512
1738836520.368,-1000.000,-1000.000,-937.500,-1000.000,999.512
1738836520.372,-205.078,-203.125,-639.160,-201.172,172.363
1738836520.462,-1000.000,-1000.000,-849.609,-1000.000,999.512
1738836520.466,-361.328,-472.656,-834.473,-454.590,444.336
1738836520.470,999.512,999.512,151.855,999.512,-1000.000
1738836520.474,281.250,361.328,253.418,486.328,-399.414
1738836520.478,-1000.000,-996.094,-701.660,-934.082,946.289
1738836520.482,-1000.000,-1000.000,-862.793,-1000.000,999.512
1738836520.486,-445.312,-582.520,-858.887,-523.926,638.184
1738836520.489,999.512,937.500,49.805,921.387,-950.684
1738836520.493,494.141,573.730,435.547,745.605,-620.117
1738836520.497,-928.711,-917.480,-525.879,-740.723,871.582
1738836520.501,-1000.000,-1000.000,-878.418,-1000.000,999.512
1738836520.505,-751.465,-867.188,-938.477,-838.867,805.176
1738836520.509,780.273,593.262,-130.859,547.363,-616.211
1738836520.513,775.879,872.070,384.766,999.512,-1000.000
1738836520.517,-756.836,-689.941,-512.207,-442.383,499.023
1738836520.521,-1000.000,-1000.000,-867.188,-1000.000,999.512
1738836520.525,-906.738,-1000.000,-930.176,-1000.000,985.352
1738836520.529,442.383,200.684,-231.445,150.391,-220.703
1738836520.533,999.512,999.512,494.141,999.512,-1000.000
1738836520.536,-442.383,-357.422,-324.219,-168.945,272.461
1738836520.540,-1000.000,-1000.000,-870.117,-1000.000,999.512
1738836520.544,-1000.000,-1000.000,-950.195,-1000.000,999.512
1738836520.548,149.902,-32.227,-354.004,-64.453,27.344
1738836520.552,999.512,999.512,538.086,999.512,-1000.000
1738836520.514,-173.828,-117.676,-203.613,42.480,50.293
1738836520.518,-1000.000,-1000.000,-872.559,-1000.000,999.512
1738836520.522,-1000.000,-1000.000,-922.852,-1000.000,999.512
1738836520.526,-132.812,-244.629,-563.965,-263.184,202.148
1738836520.530,999.512,999.512,402.832,999.512,-1000.000
1738836520.534,50.781,100.586,-71.289,171.875,-165.527
1738836520.538,-1000.000,-1000.000,-822.266,-1000.000,999.512
1738836520.541,-1000.000,-1000.000,-896.973,-1000.000,999.512
1738836520.545,-263.184,-260.254,-654.297,-255.371,226.074
1738836520.549,999.512,999.512,383.789,999.512,-1000.000
1738836520.553,171.387,171.387,76.660,171.387,-202.637
1738836520.557,-1000.000,-1000.000,-795.410,-1000.000,999.512
1738836520.537,-1000.000,-1000.000,-909.180,-1000.000,999.512
1738836520.541,-255.371,-255.371,-711.914,-261.230,233.887
1738836520.545,999.512,999.512,364.258,999.512,-1000.000
1738836520.549,171.387,163.574,92.773,262.207,-220.703
1738836520.553,-1000.000,-1000.000,-850.586,-992.188,987.305
1738836520.557,-1000.000,-1000.000,-850.586,-1000.000,999.512
1738836520.561,-261.719,-417.969,-769.043,-442.871,420.898
1738836520.564,999.512,999.512,205.078,999.512,-1000.000
1738836520.568,258.301,292.969,144.531,477.539,-392.578
1738836520.572,-992.676,-997.559,-769.043,-914.551,943.359
1738836520.576,-1000.000,-1000.000,-779.785,-1000.000,999.512
1738836520.580,-455.566,-595.215,-757.324,-594.727,594.727
1738836520.671,999.512,999.512,165.527,950.684,-989.746
1738836520.675,464.844,512.207,305.176,713.867,-621.582
1738836520.679,-922.852,-930.176,-666.992,-757.812,845.215
1738836520.683,-1000.000,-1000.000,-888.184,-1000.000,999.512
1738836520.687,-617.188,-758.789,-882.324,-744.629,697.266
1738836520.691,944.336,788.574,24.414,703.613,-794.434
1738836520.695,690.918,767.090,432.129,986.328,-930.176
1738836520.698,-802.246,-781.738,-564.453,-488.281,568.848
1738836520.702,-1000.000,-1000.000,-880.371,-1000.000,999.512
1738836520.706,-849.609,-999.023,-923.828,-967.773,923.828
1738836520.710,567.383,297.852,-202.148,265.137,-344.238
1738836520.714,974.609,999.512,431.152,999.512,-1000.000
1738836520.676,-546.387,-482.910,-439.941,-203.125,272.949
1738836520.680,-1000.000,-1000.000,-860.840,-1000.000,999.512
1738836520.684,-1000.000,-1000.000,-945.312,-1000.000,999.512
1738836520.688,175.293,20.996,-373.047,31.738,-62.988
1738836520.692,999.512,999.512,500.488,999.512,-1000.000
1738836520.696,-248.535,-190.918,-193.359,-10.742,137.695
1738836520.700,-1000.000,-1000.000,-858.887,-1000.000,999.512
1738836520.703,-1000.000,-1000.000,-947.754,-1000.000,999.512
1738836520.707,-59.082,-193.848,-468.750,-165.039,173.828
1738836520.711,999.512,999.512,488.770,999.512,-1000.000
1738836520.715,-60.059,28.809,-134.766,156.738,-125.977
1738836520.719,-1000.000,-1000.000,-854.980,-1000.000,999.512
1738836520.681,-1000.000,-1000.000,-886.230,-1000.000,999.512
1738836520.685,-270.508,-265.137,-625.977,-255.371,229.004
1738836520.689,999.512,999.512,379.883,999.512,-1000.000
1738836520.693,171.387,171.875,-1.953,171.387,-202.637
1738836520.697,-1000.000,-1000.000,-826.660,-1000.000,999.512
1738836520.701,-1000.000,-1000.000,-888.184,-1000.000,999.512
1738836520.705,-255.371,-255.371,-719.727,-255.371,223.633
1738836520.708,999.512,999.512,339.844,999.512,-1000.000
1738836520.712,170.898,166.504,95.703,166.016,-197.754
1738836520.716,-1000.000,-1000.000,-819.824,-1000.000,998.535
1738836520.720,-1000.000,-1000.000,-891.113,-1000.000,999.512
1738836520.724,-255.371,-356.934,-784.180,-365.234,336.426
1738836520.761,999.512,999.512,277.344,999.512,-1000.000
1738836520.765,162.598,229.004,120.605,371.094,-334.473
1738836520.769,-1000.000,-1000.000,-840.332,-956.055,953.125
1738836520.773,-1000.000,-1000.000,-866.699,-1000.000,999.512
1738836520.777,-441.406,-544.922,-773.438,-540.527,564.453
1738836520.781,999.512,999.512,241.699,999.512,-1000.000
1738836520.785,384.277,448.730,385.254,585.938,-485.840
1738836520.788,-962.402,-955.078,-622.070,-875.977,929.688
1738836520.792,-1000.000,-1000.000,-896.973,-1000.000,999.512
1738836520.796,-542.969,-733.887,-911.133,-732.910,674.805
1738836520.800,999.512,828.613,-71.289,744.629,-876.465
1738836520.804,585.938,690.430,416.016,903.320,-753.906
1738836520.776,-876.465,-843.262,-498.047,-598.633,766.602
1738836520.780,-1000.000,-1000.000,-887.207,-1000.000,999.512
1738836520.784,-733.398,-937.012,-937.012,-934.082,870.117
1738836520.788,743.652,438.477,-157.227,342.773,-474.609
1738836520.792,903.809,982.422,419.922,999.512,-1000.000
1738836520.796,-604.004,-565.430,-461.914,-267.090,387.207
1738836520.800,-1000.000,-1000.000,-836.426,-1000.000,999.512
1738836520.803,-973.145,-1000.000,-920.898,-1000.000,999.512
1738836520.807,269.043,88.867,-328.613,42.480,-113.281
1738836520.811,999.512,999.512,450.684,999.512,-1000.000
1738836520.815,-266.113,-254.395,-317.871,-64.453,127.930
1738836520.819,-1000.000,-1000.000,-855.469,-1000.000,999.512
1738836520.837,-1000.000,-1000.000,-933.105,-1000.000,999.512
1738836520.841,42.480,-125.977,-448.730,-168.945,101.074
1738836520.845,999.512,999.512,484.375,999.512,-1000.000
1738836520.849,-64.941,-32.715,-67.871,156.738,-4.395
1738836520.853,-1000.000,-1000.000,-773.926,-1000.000,999.512
1738836520.857,-1000.000,-1000.000,-931.152,-1000.000,999.512
1738836520.861,-168.457,-267.578,-574.219,-255.371,232.422
1738836520.864,999.512,999.512,470.215,999.512,-1000.000
1738836520.868,147.949,155.762,-31.738,171.387,-202.148
1738836520.872,-1000.000,-1000.000,-859.375,-1000.000,999.512
1738836520.876,-1000.000,-1000.000,-900.391,-1000.000,999.512
1738836520.880,-256.348,-256.348,-685.059,-255.371,223.633
1738836520.911,999.512,999.512,355.469,999.512,-1000.000
1738836520.915,170.898,169.434,39.062,168.945,-200.195
1738836520.919,-1000.000,-1000.000,-834.473,-1000.000,999.512
1738836520.923,-1000.000,-1000.000,-891.113,-1000.000,999.512
1738836520.927,-255.371,-302.734,-756.348,-313.965,278.809
1738836520.931,999.512,999.512,312.988,999.512,-1000.000
1738836520.935,166.016,181.152,167.480,334.473,-238.770
1738836520.938,-1000.000,-1000.000,-795.898,-966.309,985.352
1738836520.942,-1000.000,-1000.000,-882.812,-1000.000,999.512
1738836520.946,-362.305,-495.605,-846.191,-494.629,468.262
1738836520.950,999.512,999.512,197.754,999.512,-1000.000
1738836520.954,296.875,374.512,283.691,532.227,-477.539
1738836520.916,-988.281,-978.516,-759.766,-893.066,912.109
1738836520.920,-1000.000,-1000.000,-876.465,-1000.000,999.512
1738836520.924,-536.621,-690.430,-891.602,-627.441,623.535
1738836520.928,999.512,905.273,-19.043,891.113,-932.129
1738836520.932,496.582,593.750,299.316,804.199,-726.562
1738836520.936,-928.711,-916.992,-597.168,-674.316,774.414
1738836520.940,-1000.000,-1000.000,-820.801,-1000.000,999.512
1738836520.943,-721.680,-891.113,-920.898,-836.426,821.777
1738836520.947,812.012,548.828,-145.508,545.410,-599.121
1738836520.951,770.020,896.973,458.984,999.512,-976.562
1738836520.955,-757.812,-667.969,-415.527,-425.293,554.688
1738836520.959,-1000.000,-1000.000,-848.145,-1000.000,999.512
1738836521.061,-926.270,-1000.000,-932.617,-1000.000,987.305
1738836521.065,412.598,156.738,-194.336,150.879,-185.547
1738836521.069,999.512,999.512,522.949,999.512,-1000.000
1738836521.073,-450.195,-336.914,-369.629,-168.945,195.312
1738836521.077,-1000.000,-1000.000,-861.328,-1000.000,999.512
1738836521.081,-1000.000,-1000.000,-913.574,-1000.000,999.512
1738836521.085,84.961,-34.180,-216.797,-27.832,80.566
1738836521.088,999.512,999.512,517.090,999.512,-1000.000
1738836521.092,-343.750,-279.297,-322.754,-138.672,163.086
1738836521.096,-1000.000,-1000.000,-838.867,-1000.000,999.512
1738836521.100,-1000.000,-1000.000,-930.664,-1000.000,999.512
1738836521.104,-98.145,-259.277,-577.637,-268.555,208.008
1738836521.066,999.512,999.512,437.500,999.512,-1000.000
1738836521.070,45.898,123.047,-49.805,171.387,-158.203
1738836521.074,-1000.000,-1000.000,-853.516,-1000.000,999.512
1738836521.078,-1000.000,-1000.000,-921.387,-1000.000,999.512
1738836521.082,-263.184,-258.789,-657.227,-255.371,227.051
1738836521.086,999.512,999.512,405.762,999.512,-1000.000
1738836521.090,170.898,171.875,45.410,171.387,-202.148
1738836521.093,-1000.000,-1000.000,-845.215,-1000.000,999.512
1738836521.097,-1000.000,-1000.000,-858.887,-1000.000,999.512
1738836521.101,-255.859,-256.348,-702.148,-261.230,239.258
1738836521.105,999.512,999.512,307.617,999.512,-1000.000
1738836521.109,171.387,163.574,98.145,261.230,-221.680
1738836521.071,-1000.000,-1000.000,-812.988,-991.699,987.305
1738836521.075,-1000.000,-1000.000,-850.098,-1000.000,999.512
1738836521.079,-261.719,-432.617,-819.336,-455.566,415.527
1738836521.083,999.512,999.512,172.852,999.512,-1000.000
1738836521.087,261.230,321.289,246.094,479.492,-362.793
1738836521.091,-991.699,-987.793,-702.637,-915.527,955.078
1738836521.095,-1000.000,-1000.000,-873.535,-1000.000,999.512
1738836521.098,-455.566,-608.887,-880.371,-612.305,572.754
1738836521.102,999.512,992.188,44.434,932.617,-1000.000
1738836521.106,478.516,534.668,282.227,744.141,-639.648
1738836521.110,-915.527,-921.875,-672.852,-735.840,825.195
1738836521.114,-1000.000,-1000.000,-875.000,-1000.000,999.512
1738836521.107,-612.305,-774.902,-872.070,-782.715,716.309
1738836521.111,931.641,751.465,-24.902,635.742,-765.137
1738836521.115,743.164,806.152,397.949,999.512,-950.684
1738836521.119,-735.840,-732.910,-505.371,-433.594,541.016
1738836521.123,-1000.000,-1000.000,-858.887,-1000.000,999.512
1738836521.127,-782.715,-950.684,-884.277,-958.984,890.625
1738836521.131,635.254,352.051,-122.070,254.883,-408.691
1738836521.134,999.512,999.512,509.277,999.512,-1000.000
1738836521.138,-435.547,-423.828,-278.809,-159.668,329.102
1738836521.142,-1000.000,-1000.000,-772.949,-1000.000,999.512
1738836521.146,-969.238,-1000.000,-829.590,-1000.000,979.492
1738836521.150,241.211,83.496,-250.977,55.664,-45.410
1738836521.151,999.512,999.512,460.938,999.512,-1000.000
1738836521.155,-189.941,-161.621,-295.410,27.344,49.316
1738836521.159,-1000.000,-1000.000,-872.559,-1000.000,999.512
1738836521.163,-1000.000,-1000.000,-924.316,-1000.000,999.512
1738836521.167,-61.523,-217.285,-528.320,-221.680,189.453
1738836521.171,999.512,999.512,453.613,999.512,-1000.000
1738836521.175,0.000,57.129,-105.469,165.527,-139.648
1738836521.178,-1000.000,-1000.000,-808.105,-1000.000,999.512
1738836521.182,-1000.000,-1000.000,-848.633,-1000.000,999.512
1738836521.186,-266.113,-263.184,-644.531,-255.371,228.027
1738836521.190,999.512,999.512,390.625,999.512,-1000.000
1738836521.194,170.898,171.387,2.930,171.875,-202.637
1738836521.197,-1000.000,-1000.000,-837.891,-1000.000,999.512
1738836521.201,-1000.000,-1000.000,-904.785,-1000.000,999.512
1738836521.205,-255.859,-255.371,-716.797,-256.836,224.121
1738836521.209,999.512,999.512,342.285,999.512,-1000.000
1738836521.213,170.898,164.551,62.988,187.500,-199.219
1738836521.217,-1000.000,-1000.000,-833.496,-1000.000,992.676
1738836521.221,-1000.000,-1000.000,-868.164,-1000.000,999.512
1738836521.224,-255.371,-392.578,-701.660,-363.770,435.059
1738836521.228,999.512,999.512,328.613,999.512,-1000.000
1738836521.232,162.598,248.047,104.980,386.719,-370.605
1738836521.236,-1000.000,-1000.000,-847.168,-948.242,954.590
1738836521.240,-1000.000,-1000.000,-852.539,-1000.000,999.512
1738836521.241,-433.594,-564.453,-868.652,-539.062,533.203
1738836521.245,999.512,999.512,70.312,999.512,-1000.000
1738836521.249,380.371,469.727,294.922,585.938,-555.176
1738836521.253,-961.914,-952.637,-678.711,-875.977,889.648
1738836521.257,-1000.000,-1000.000,-881.836,-1000.000,999.512
1738836521.261,-628.906,-783.203,-901.855,-732.910,737.305
1738836521.265,966.309,761.230,7.324,744.629,-758.789
1738836521.268,605.469,721.191,395.020,902.832,-872.070
1738836521.272,-894.531,-831.055,-610.352,-598.633,651.367
1738836521.276,-1000.000,-1000.000,-858.398,-1000.000,999.512
1738836521.280,-858.398,-967.773,-928.223,-934.082,900.391
1738836521.284,580.566,373.535,-181.152,342.773,-403.809
1738836521.286,927.734,999.512,422.852,999.512,-1000.000
1738836521.290,-605.469,-532.227,-454.590,-267.090,333.984
1738836521.294,-1000.000,-1000.000,-854.980,-1000.000,999.512
1738836521.298,-959.961,-1000.000,-950.195,-1000.000,999.512
1738836521.302,294.434,66.406,-348.633,42.969,-96.191
1738836521.306,999.512,999.512,516.113,999.512,-1000.000
1738836521.310,-271.973,-230.957,-196.289,-64.453,181.152
1738836521.313,-1000.000,-1000.000,-855.469,-1000.000,999.512
1738836521.317,-1000.000,-1000.000,-960.449,-1000.000,999.512
1738836521.321,-33.203,-148.926,-441.406,-168.945,148.926
1738836521.325,999.512,999.512,518.555,999.512,-1000.000
1738836521.329,-57.129,-12.207,-129.883,157.227,-86.914
1738836521.332,-1000.000,-1000.000,-837.891,-1000.000,999.512
1738836521.336,-1000.000,-1000.000,-883.789,-1000.000,999.512
1738836521.340,-168.945,-267.090,-594.727,-255.371,231.445
1738836521.344,999.512,999.512,375.977,999.512,-1000.000
1738836521.348,156.738,162.109,-26.855,171.387,-203.125
1738836521.352,-1000.000,-1000.000,-806.641,-1000.000,999.512
1738836521.356,-1000.000,-1000.000,-889.648,-1000.000,999.512
1738836521.359,-255.371,-255.859,-693.359,-255.371,223.633
1738836521.363,999.512,999.512,362.793,999.512,-1000.000
1738836521.367,170.898,167.969,120.605,166.504,-199.219
1738836521.371,-1000.000,-1000.000,-752.441,-1000.000,999.512
1738836521.375,-1000.000,-1000.000,-887.695,-1000.000,999.512
1738836521.391,-255.371,-326.660,-773.438,-364.746,299.805
1738836521.395,999.512,999.512,301.270,999.512,-1000.000
1738836521.399,165.527,194.824,115.723,363.770,-270.020
1738836521.403,-1000.000,-1000.000,-843.262,-959.473,974.609
1738836521.436,563.965,625.977,365.723,858.887,-774.414
1738836521.440,-889.648,-896.973,-592.285,-651.855,734.863
1738836521.444,-1000.000,-1000.000,-866.699,-1000.000,999.512
1738836521.448,-742.188,-922.852,-934.082,-934.570,851.562
1738836521.452,766.602,492.188,-128.906,370.117,-521.973
1738836521.456,821.289,919.922,445.801,999.512,-1000.000
1738836521.460,-704.102,-648.926,-461.914,-353.516,458.496
1738836521.463,-1000.000,-1000.000,-864.258,-1000.000,999.512
1738836521.467,-949.707,-1000.000,-899.902,-1000.000,999.512
1738836521.471,372.559,117.188,-178.223,97.656,-77.637
1738836521.475,999.512,999.512,471.191,999.512,-1000.000
1738836521.479,-439.941,-319.336,-363.281,-122.559,159.668
1738836521.481,-1000.000,-1000.000,-840.820,-1000.000,999.512
1738836521.485,-1000.000,-1000.000,-931.641,-1000.000,999.512
1738836521.489,48.828,-98.633,-458.984,-82.520,72.266
1738836521.493,999.512,999.512,478.027,999.512,-1000.000
1738836521.497,-167.480,-83.984,-151.855,51.270,-20.508
1738836521.501,-1000.000,-1000.000,-828.125,-1000.000,999.512
1738836521.505,-1000.000,-1000.000,-907.715,-1000.000,999.512
1738836521.508,-167.480,-269.531,-552.734,-262.695,225.586
1738836521.512,999.512,999.512,526.367,999.512,-1000.000
1738836521.516,55.176,136.719,-20.508,171.387,-200.195
1738836521.520,-1000.000,-1000.000,-855.957,-1000.000,999.512
1738836521.524,-1000.000,-1000.000,-881.836,-1000.000,999.512
1738836521.526,-263.184,-257.812,-681.641,-255.371,223.633
1738836521.530,999.512,999.512,356.934,999.512,-1000.000
1738836521.534,170.898,169.922,40.039,169.434,-200.684
1738836521.538,-1000.000,-1000.000,-811.523,-1000.000,999.512
1738836521.542,-1000.000,-1000.000,-884.277,-1000.000,999.512
1738836521.546,-255.371,-285.645,-742.188,-299.805,269.531
1738836521.550,999.512,999.512,333.496,999.512,-1000.000
1738836521.553,165.527,166.504,173.828,348.633,-223.633
1738836521.557,-1000.000,-1000.000,-748.047,-958.008,989.258
1738836521.561,-1000.000,-1000.000,-871.582,-1000.000,999.512
1738836521.565,-361.328,-479.492,-840.332,-491.211,458.496
1738836521.569,999.512,999.512,171.387,999.512,-1000.000
1738836521.571,273.926,356.934,229.980,549.316,-457.031
1738836521.575,-998.047,-982.422,-743.164,-884.277,919.434
1738836521.579,-1000.000,-1000.000,-862.793,-1000.000,999.512
1738836521.583,-548.828,-654.785,-882.812,-666.016,607.422
1738836521.587,999.512,942.871,12.207,839.844,-957.520
1738836521.591,497.070,576.660,319.824,833.008,-693.359
1738836521.595,-932.617,-917.969,-595.215,-649.414,800.293
1738836521.598,-1000.000,-1000.000,-790.527,-1000.000,999.512
1738836521.602,-758.789,-879.395,-935.059,-859.375,820.801
1738836521.606,798.340,619.141,-113.281,601.562,-650.391
1738836521.610,720.215,791.504,400.391,901.855,-891.602
1738836521.614,-848.145,-827.148,-560.059,-711.914,698.242
1738836521.617,-1000.000,-1000.000,-833.008,-1000.000,999.512
1738836521.621,-932.129,-1000.000,-942.871,-1000.000,975.098
1738836521.625,401.367,188.965,-190.918,140.625,-214.355
1738836521.629,999.512,999.512,511.719,999.512,-1000.000
1738836521.633,-445.801,-362.793,-393.066,-168.457,219.727
1738836521.637,-1000.000,-1000.000,-842.285,-1000.000,999.512
1738836521.641,-1000.000,-1000.000,-892.578,-1000.000,999.512
1738836521.644,102.051,-39.551,-359.375,-64.453,83.984
1738836521.648,999.512,999.512,460.449,999.512,-1000.000
1738836521.652,-167.969,-115.234,-220.215,42.969,16.113
1738836521.656,-1000.000,-1000.000,-836.426,-1000.000,999.512
1738836521.660,-1000.000,-1000.000,-919.434,-1000.000,999.512
1738836521.676,-104.980,-245.605,-573.730,-263.184,200.684
1738836521.680,999.512,999.512,451.660,999.512,-1000.000
1738836521.684,46.875,102.051,-49.805,171.387,-147.949
1738836521.688,-1000.000,-1000.000,-829.590,-1000.000,999.512
1738836521.692,-1000.000,-1000.000,-905.273,-1000.000,999.512
1738836521.696,-263.184,-260.254,-645.020,-255.371,227.539
1738836521.700,999.512,999.512,477.539,999.512,-1000.000
1738836521.703,171.387,171.387,66.406,171.387,-203.125
1738836521.707,-1000.000,-1000.000,-828.613,-1000.000,999.512
1738836521.711,-1000.000,-1000.000,-903.809,-1000.000,999.512
1738836521.715,-255.371,-255.371,-665.039,-261.230,227.539
1738836521.719,999.512,999.512,463.867,999.512,-1000.000
1738836521.706,170.898,163.574,62.012,261.719,-219.727
1738836521.710,-1000.000,-1000.000,-841.309,-991.699,987.305
1738836521.714,-1000.000,-1000.000,-886.719,-1000.000,999.512
1738836521.718,-261.719,-423.828,-777.832,-455.566,402.832
1738836521.722,999.512,999.512,295.898,999.512,-1000.000
1738836521.726,261.230,294.922,240.234,479.492,-333.496
1738836521.730,-991.699,-997.559,-708.984,-915.527,964.355
1738836521.733,-1000.000,-1000.000,-854.004,-1000.000,999.512
1738836521.737,-455.566,-601.562,-885.254,-612.305,566.406
1738836521.741,999.512,999.512,110.352,932.617,-1000.000
1738836521.745,465.820,514.648,330.566,745.605,-604.980
1738836521.749,-922.363,-938.965,-700.684,-742.676,860.840
1738836521.767,-1000.000,-1000.000,-857.910,-1000.000,999.512
1738836521.771,-615.723,-824.219,-922.852,-838.867,761.230
1738836521.775,940.430,686.523,-103.516,547.363,-706.055
1738836521.779,709.473,785.156,363.281,999.512,-929.688
1738836521.783,-781.250,-776.855,-537.598,-442.383,590.820
1738836521.787,-1000.000,-1000.000,-822.266,-1000.000,999.512
1738836521.791,-847.656,-1000.000,-937.500,-1000.000,947.266
1738836521.794,566.406,287.598,-201.172,150.391,-334.473
1738836521.798,980.469,999.512,511.719,999.512,-1000.000
1738836521.802,-539.551,-484.375,-319.336,-168.945,376.465
1738836521.806,-1000.000,-1000.000,-819.824,-1000.000,999.512
1738836521.810,-1000.000,-1000.000,-949.219,-1000.000,999.512
1738836521.812,159.180,4.883,-338.379,-64.453,-12.695
1738836521.816,999.512,999.512,482.910,999.512,-1000.000
1738836521.820,-253.418,-191.406,-313.477,42.480,81.543
1738836521.824,-1000.000,-1000.000,-853.516,-1000.000,999.512
1738836521.828,-1000.000,-1000.000,-915.527,-1000.000,999.512
1738836521.832,-59.082,-210.449,-511.230,-263.184,183.105
1738836521.836,999.512,999.512,479.492,999.512,-1000.000
1738836521.839,-60.059,32.715,-127.441,171.875,-125.000
1738836521.843,-1000.000,-1000.000,-802.734,-1000.000,999.512
1738836521.847,-1000.000,-1000.000,-835.938,-1000.000,999.512
1738836521.851,-270.996,-265.137,-672.852,-255.371,229.004
1738836521.855,999.512,999.512,387.695,999.512,-1000.000
1738836521.857,171.387,171.387,40.527,171.875,-203.125
1738836521.861,-1000.000,-1000.000,-819.824,-1000.000,999.512
1738836521.865,-1000.000,-1000.000,-900.879,-1000.000,999.512
1738836521.869,-255.371,-254.883,-718.750,-241.211,223.633
1738836521.873,999.512,999.512,361.816,999.512,-1000.000
1738836521.877,170.898,166.016,74.707,142.090,-194.824
1738836521.881,-1000.000,-1000.000,-835.449,-993.652,995.605
1738836521.884,-1000.000,-1000.000,-850.586,-1000.000,999.512
1738836521.888,-255.371,-373.535,-754.395,-429.199,395.508
1738836521.892,999.512,999.512,239.258,999.512,-1000.000
1738836521.896,161.621,234.863,100.098,430.664,-347.168
1738836521.900,-1000.000,-1000.000,-793.457,-936.035,957.520
1738836521.902,-1000.000,-1000.000,-807.129,-1000.000,999.512
1738836521.906,-461.914,-555.664,-885.742,-591.309,528.320
1738836521.910,999.512,999.512,65.918,975.098,-1000.000
1738836521.914,385.742,458.008,304.199,641.602,-491.211
1738836521.918,-964.355,-954.590,-650.391,-838.867,924.805
1738836521.922,-1000.000,-1000.000,-846.680,-1000.000,999.512
1738836521.926,-616.211,-757.324,-906.250,-782.715,731.445
1738836521.929,974.609,797.363,-1.465,674.316,-779.785
1738836521.933,602.051,704.102,405.273,921.387,-848.633
1738836521.937,-888.184,-839.355,-604.492,-590.820,673.828
1738836521.941,-1000.000,-1000.000,-849.609,-1000.000,999.512
1738836521.945,-801.270,-949.707,-936.035,-953.613,889.160
1738836521.947,655.273,412.598,-200.684,306.641,-434.570
1738836521.951,917.480,992.188,432.617,999.512,-1000.000
1738836521.955,-607.422,-554.199,-437.012,-267.090,367.676
1738836521.959,-1000.000,-1000.000,-831.055,-1000.000,999.512
1738836521.963,-985.352,-1000.000,-933.594,-1000.000,999.512
1738836521.967,246.094,80.078,-318.848,28.809,-78.125
1738836521.971,999.512,999.512,526.855,999.512,-1000.000
1738836521.974,-268.066,-238.770,-172.852,-62.988,178.223
1738836521.978,-1000.000,-1000.000,-800.781,-1000.000,999.512
1738836521.982,-1000.000,-1000.000,-954.590,-1000.000,999.512
1738836521.986,0.488,-136.719,-458.496,-168.945,138.672
1738836521.990,999.512,999.512,496.582,999.512,-1000.000
1738836521.992,-61.523,-21.484,-167.480,157.227,-74.707
1738836521.996,-1000.000,-1000.000,-849.121,-1000.000,999.512
1738836522.000,-1000.000,-1000.000,-904.785,-1000.000,999.512
1738836522.004,-182.617,-267.578,-639.648,-255.371,232.422
1738836522.008,999.512,999.512,405.273,999.512,-1000.000
1738836522.012,158.691,160.645,-16.113,171.387,-202.637
1738836522.016,-1000.000,-1000.000,-759.766,-1000.000,999.512
1738836522.019,-1000.000,-1000.000,-824.219,-1000.000,999.512
1738836522.023,-255.371,-255.859,-724.121,-255.371,224.121
1738836522.027,999.512,999.512,366.211,999.512,-1000.000
1738836522.031,170.898,168.457,80.566,166.504,-199.707
1738836522.035,-1000.000,-1000.000,-818.848,-1000.000,999.512
1738836522.037,-1000.000,-1000.000,-896.484,-1000.000,999.512
1738836522.041,-255.371,-316.406,-780.273,-365.234,290.039
1738836522.045,999.512,999.512,325.195,999.512,-1000.000
1738836522.049,166.016,185.059,101.074,371.094,-276.367
1738836522.053,-1000.000,-1000.000,-853.516,-956.055,970.703
1738836522.057,-1000.000,-1000.000,-823.242,-1000.000,999.512
1738836522.061,-364.258,-513.672,-818.359,-540.527,497.559
1738836522.064,999.512,999.512,142.090,999.512,-1000.000
1738836522.068,338.379,390.625,218.262,585.938,-483.398
1738836522.072,-970.215,-975.098,-708.008,-875.977,916.504
1738836522.076,-1000.000,-1000.000,-773.926,-1000.000,999.512
1738836522.080,-543.457,-702.637,-889.648,-732.910,659.180
1738836522.081,999.512,886.230,-32.715,744.629,-890.625
1738836522.085,552.246,615.723,356.934,902.832,-763.184
1738836522.089,-897.461,-904.785,-592.285,-598.633,750.977
1738836522.093,-1000.000,-1000.000,-846.191,-1000.000,999.512
1738836522.097,-741.699,-921.387,-914.551,-934.082,867.188
1738836522.101,763.184,496.094,-130.371,342.773,-511.230
1738836522.105,834.473,918.457,428.223,999.512,-1000.000
1738836522.108,-687.012,-649.414,-492.188,-267.578,490.234
1738836522.112,-1000.000,-1000.000,-844.238,-1000.000,999.512
1738836522.116,-945.312,-1000.000,-904.297,-1000.000,999.512
1738836522.120,363.281,123.047,-210.449,42.480,-128.418
1738836522.124,999.512,999.512,487.793,999.512,-1000.000
1738836522.142,-389.160,-316.406,-358.887,-64.941,178.223
1738836522.146,-1000.000,-1000.000,-825.195,-1000.000,999.512
1738836522.150,-1000.000,-1000.000,-933.594,-1000.000,999.512
1738836522.154,50.781,-97.168,-487.793,-168.945,68.848
1738836522.158,999.512,999.512,469.238,999.512,-1000.000
1738836522.162,-167.480,-87.891,-149.902,157.227,29.297
1738836522.166,-1000.000,-1000.000,-825.684,-1000.000,999.512
1738836522.169,-1000.000,-1000.000,-918.457,-1000.000,999.512
1738836522.173,-167.480,-269.531,-573.730,-255.371,224.609
1738836522.177,999.512,999.512,464.355,999.512,-1000.000
1738836522.181,55.176,134.277,-74.219,171.875,-194.824
1738836522.185,-1000.000,-1000.000,-818.359,-1000.000,999.512
1738836522.187,-1000.000,-1000.000,-875.488,-1000.000,999.512
1738836522.191,-263.672,-258.301,-696.289,-255.371,224.121
1738836522.195,999.512,999.512,365.234,999.512,-1000.000
1738836522.199,171.387,170.410,29.785,173.340,-200.684
1738836522.203,-1000.000,-1000.000,-804.688,-1000.000,999.512
1738836522.207,-1000.000,-1000.000,-849.609,-1000.000,999.512
1738836522.211,-255.371,-277.344,-742.676,-275.879,264.160
1738836522.214,999.512,999.512,304.688,999.512,-1000.000
1738836522.218,166.016,165.527,155.273,345.703,-203.613
1738836522.222,-1000.000,-1000.000,-750.000,-964.844,996.094
1738836522.226,-1000.000,-1000.000,-864.746,-1000.000,999.512
1738836522.230,-361.328,-461.426,-843.262,-542.969,451.172
1738836522.232,999.512,999.512,181.641,999.512,-1000.000
1738836522.236,273.926,340.820,170.898,542.480,-427.734
1738836522.240,-998.047,-985.352,-782.227,-902.832,932.617
1738836522.244,-1000.000,-1000.000,-815.918,-1000.000,999.512
1738836522.248,-548.828,-635.254,-874.512,-725.098,610.352
1738836522.252,999.512,966.309,36.621,788.086,-969.238
1738836522.256,497.070,558.105,319.336,816.895,-639.160
1738836522.259,-931.152,-924.316,-611.816,-703.125,847.168
1738836522.263,-1000.000,-1000.000,-769.531,-1000.000,999.512
1738836522.267,-728.516,-854.980,-919.434,-937.500,800.293
1738836522.271,805.176,622.070,-139.160,392.578,-636.230
1738836522.275,771.484,844.238,432.129,999.512,-976.074
1738836522.277,-757.812,-719.238,-500.000,-439.941,544.922
1738836522.281,-1000.000,-1000.000,-848.633,-1000.000,999.512
1738836522.285,-922.363,-1000.000,-948.242,-1000.000,977.051
1738836522.289,418.945,223.633,-229.004,76.172,-241.699
1738836522.293,999.512,999.512,488.281,999.512,-1000.000
1738836522.297,-445.801,-407.227,-377.930,-166.992,283.203
1738836522.301,-1000.000,-1000.000,-832.031,-1000.000,999.512
1738836522.304,-1000.000,-1000.000,-908.203,-1000.000,999.512
1738836522.308,104.004,-26.855,-297.852,-127.441,76.660
1738836522.312,999.512,999.512,517.090,999.512,-1000.000
1738836522.316,-168.945,-142.578,-261.230,50.293,46.387
1738836522.320,-1000.000,-1000.000,-838.867,-1000.000,999.512
1738836522.321,-1000.000,-1000.000,-921.387,-1000.000,999.512
1738836522.325,-117.676,-231.445,-577.637,-263.184,193.848
1738836522.329,999.512,999.512,445.312,999.512,-1000.000
1738836522.333,55.664,83.984,-82.520,178.711,-148.438
1738836522.337,-1000.000,-1000.000,-835.938,-1000.000,999.512
1738836522.341,-1000.000,-1000.000,-880.859,-1000.000,999.512
1738836522.345,-175.293,-173.828,-627.441,-166.992,227.539
1738836522.348,999.512,999.512,459.961,999.512,-1000.000
1738836522.352,171.387,171.875,53.223,170.410,-202.637
1738836522.356,-1000.000,-1000.000,-813.477,-1000.000,999.512
1738836522.360,-1000.000,-1000.000,-844.727,-1000.000,999.512
1738836522.364,-255.371,-255.371,-690.918,-285.645,229.980
1738836522.366,999.512,999.512,343.262,999.512,-1000.000
1738836522.370,171.387,164.062,83.008,265.625,-202.148
1738836522.374,-1000.000,-1000.000,-803.711,-993.652,993.652
1738836522.378,-1000.000,-1000.000,-855.957,-1000.000,999.512
1738836522.382,-257.324,-412.598,-818.848,-455.566,390.137
1738836522.386,999.512,999.512,218.262,999.512,-1000.000
1738836522.390,187.988,258.789,270.996,479.492,-307.129
1738836522.393,-1000.000,-1000.000,-663.574,-915.527,972.656
1738836522.397,-1000.000,-1000.000,-853.516,-1000.000,999.512
1738836522.401,-459.961,-597.168,-873.047,-612.305,566.406
1738836522.405,999.512,999.512,70.312,932.617,-1000.000
1738836522.409,386.719,482.910,265.137,745.605,-565.430
1738836522.411,-963.867,-954.102,-702.637,-743.164,890.137
1738836522.415,-1000.000,-1000.000,-844.727,-1000.000,999.512
1738836522.419,-628.906,-806.152,-912.598,-841.309,749.023
1738836522.423,965.820,727.539,-99.609,553.711,-748.047
1738836522.457,-1000.000,-1000.000,-944.824,-1000.000,999.512
1738836522.461,159.668,19.043,-334.961,-60.547,-27.832
1738836522.465,999.512,999.512,493.652,999.512,-1000.000
1738836522.469,-270.508,-208.984,-327.637,-19.531,105.469
1738836522.473,-1000.000,-1000.000,-829.102,-1000.000,999.512
1738836522.477,-1000.000,-1000.000,-899.902,-1000.000,999.512
1738836522.481,-60.059,-172.852,-510.254,-267.578,153.809
1738836522.484,999.512,999.512,449.219,999.512,-1000.000
1738836522.488,-60.059,6.348,-150.391,171.387,-91.309
1738836522.492,-1000.000,-1000.000,-760.742,-1000.000,999.512
1738836522.496,-1000.000,-1000.000,-827.637,-1000.000,999.512
1738836522.500,-270.508,-266.113,-675.293,-254.883,230.469
1738836522.517,999.512,999.512,391.113,999.512,-1000.000
1738836522.521,171.387,164.551,10.742,171.387,-190.430
1738836522.525,-1000.000,-1000.000,-795.410,-1000.000,999.512
1738836522.529,-1000.000,-1000.000,-876.465,-1000.000,999.512
1738836522.533,-255.859,-255.859,-714.844,-255.371,224.609
1738836522.537,999.512,999.512,400.391,999.512,-1000.000
1738836522.541,170.898,167.480,87.402,163.086,-198.242
1738836522.544,-1000.000,-1000.000,-810.059,-1000.000,999.023
1738836522.548,-1000.000,-1000.000,-818.848,-1000.000,999.512
1738836522.552,-255.371,-334.961,-763.184,-435.547,317.871
1738836522.556,999.512,999.512,245.605,999.512,-1000.000
1738836522.560,164.062,206.543,116.699,381.836,-287.598
1738836522.561,-1000.000,-1000.000,-770.996,-962.402,970.215
1738836522.565,-1000.000,-1000.000,-770.996,-1000.000,999.512
1738836522.569,-406.738,-531.250,-870.117,-604.004,517.578
1738836522.573,999.512,999.512,103.516,982.422,-1000.000
1738836522.577,377.441,421.387,244.141,600.098,-504.883
1738836522.581,-959.473,-965.332,-727.051,-886.719,911.133
1738836522.585,-1000.000,-1000.000,-824.219,-1000.000,999.512
1738836522.588,-562.012,-728.516,-901.855,-793.945,692.871
1738836522.592,999.512,846.680,-8.301,665.039,-839.355
1738836522.596,589.844,653.320,382.324,915.527,-801.270
1738836522.600,-879.395,-876.465,-624.023,-602.539,716.797
1738836522.604,-1000.000,-1000.000,-843.262,-1000.000,999.512
1738836522.607,-750.977,-926.758,-943.359,-952.637,869.141
1738836522.611,723.633,472.656,-189.941,308.105,-485.840
1738836522.615,898.926,946.777,405.273,999.512,-1000.000
1738836522.619,-607.910,-613.281,-480.469,-267.578,418.457
1738836522.623,-1000.000,-1000.000,-801.270,-1000.000,999.512
1738836522.627,-937.988,-1000.000,-922.363,-1000.000,999.512
1738836522.631,351.074,100.098,-314.453,30.762,-122.070
1738836522.634,999.512,999.512,505.859,999.512,-1000.000
1738836522.638,-313.965,-288.086,-196.777,-63.477,242.676
1738836522.642,-1000.000,-1000.000,-762.207,-1000.000,999.512
1738836522.646,-1000.000,-1000.000,-951.172,-1000.000,999.512
1738836522.650,45.898,-118.652,-433.105,-168.457,117.188
1738836522.667,999.512,999.512,501.953,999.512,-1000.000
1738836522.671,-109.375,-62.500,-185.547,156.738,-38.086
1738836522.675,-1000.000,-1000.000,-829.590,-1000.000,999.512
1738836522.679,-1000.000,-1000.000,-902.832,-1000.000,999.512
1738836522.683,-166.992,-269.043,-611.328,-255.371,226.074
1738836522.687,999.512,999.512,439.941,999.512,-1000.000
1738836522.691,93.262,146.973,-35.156,171.387,-201.660
1738836522.694,-1000.000,-1000.000,-755.371,-1000.000,999.512
1738836522.698,-1000.000,-1000.000,-812.988,-1000.000,999.512
1738836522.702,-260.254,-257.324,-724.121,-255.371,223.633
1738836522.706,999.512,999.512,371.094,999.512,-1000.000
1738836522.710,170.898,169.434,83.008,166.504,-200.684
1738836522.711,-1000.000,-1000.000,-805.176,-1000.000,999.512
1738836522.715,-1000.000,-1000.000,-884.277,-1000.000,999.512
1738836522.719,-255.371,-298.340,-777.832,-364.746,275.391
1738836522.723,999.512,999.512,311.523,999.512,-1000.000
1738836522.727,166.016,168.457,90.820,362.305,-252.441
1738836522.731,-1000.000,-1000.000,-834.473,-959.961,979.980
1738836522.735,-1000.000,-1000.000,-826.660,-1000.000,999.512
1738836522.738,-361.328,-479.004,-820.312,-541.504,456.055
1738836522.742,999.512,999.512,145.020,999.512,-1000.000
1738836522.746,273.926,356.445,188.965,562.500,-450.195
1738836522.750,-998.047,-983.398,-705.078,-891.113,923.340
1738836522.754,-1000.000,-1000.000,-757.324,-1000.000,999.512
1738836522.742,-548.828,-672.363,-893.066,-738.770,623.535
1738836522.746,999.512,926.758,-13.184,756.836,-962.402
1738836522.750,497.070,578.613,376.953,861.816,-608.887
1738836522.754,-932.617,-922.363,-572.266,-652.344,884.766
1738836522.758,-1000.000,-1000.000,-844.238,-1000.000,999.512
1738836522.762,-751.465,-888.184,-913.574,-943.359,844.238
1738836522.766,779.785,562.012,-117.676,361.816,-564.941
1738836522.769,776.855,877.441,403.320,999.512,-1000.000
1738836522.773,-762.207,-689.453,-525.391,-373.047,517.578
1738836522.777,-1000.000,-1000.000,-839.355,-1000.000,999.512
1738836522.781,-951.172,-1000.000,-895.508,-1000.000,999.512
1738836522.785,373.535,188.965,-201.172,48.828,-146.973
1738836522.786,999.512,999.512,466.309,999.512,-1000.000
1738836522.790,-447.754,-364.258,-378.418,-146.973,213.867
1738836522.794,-1000.000,-1000.000,-834.961,-1000.000,999.512
1738836522.798,-1000.000,-1000.000,-929.688,-1000.000,999.512
1738836522.802,78.125,-52.734,-442.871,-166.016,41.992
1738836522.806,999.512,999.512,491.211,999.512,-1000.000
1738836522.810,-168.945,-112.305,-88.867,55.176,85.938
1738836522.813,-1000.000,-1000.000,-754.883,-1000.000,999.512
1738836522.817,-1000.000,-1000.000,-934.082,-1000.000,999.512
1738836522.821,-152.832,-247.070,-557.617,-263.184,209.473
1738836522.825,999.512,999.512,454.590,999.512,-1000.000
1738836522.829,53.223,103.027,-95.215,171.387,-164.551
1738836522.846,-1000.000,-1000.000,-826.172,-1000.000,999.512
1738836522.850,-1000.000,-1000.000,-896.484,-1000.000,999.512
1738836522.854,-263.184,-260.254,-687.500,-255.371,226.562
1738836522.858,999.512,999.512,383.301,999.512,-1000.000
1738836522.862,178.223,178.711,15.137,175.781,-209.473
1738836522.866,-1000.000,-1000.000,-815.918,-1000.000,999.512
1738836522.870,-1000.000,-1000.000,-868.164,-1000.000,999.512
1738836522.873,-167.480,-166.992,-728.516,-230.957,145.996
1738836522.877,999.512,999.512,332.520,999.512,-1000.000
1738836522.881,171.387,163.574,145.508,270.020,-195.801
1738836522.885,-1000.000,-1000.000,-753.906,-993.164,993.652
1738836522.889,-1000.000,-1000.000,-875.977,-1000.000,999.512
1738836522.891,-261.719,-428.223,-847.656,-495.605,419.922
1738836522.895,999.512,999.512,200.195,999.512,-1000.000
1738836522.899,261.230,293.945,124.023,486.816,-382.324
1738836522.903,-991.699,-998.535,-834.473,-921.387,946.777
1738836522.907,-1000.000,-1000.000,-830.566,-1000.000,999.512
1738836522.911,-455.566,-603.027,-870.605,-646.973,566.895
1738836522.915,999.512,999.512,70.801,894.531,-1000.000
1738836522.918,461.914,509.766,268.555,752.930,-585.938
1738836522.922,-924.316,-942.871,-673.828,-744.629,880.859
1738836522.926,-1000.000,-1000.000,-725.586,-1000.000,999.512
1738836522.930,-618.164,-831.543,-858.887,-838.867,787.598
1738836522.934,948.242,682.617,-113.770,547.363,-703.613
1738836522.936,675.293,771.973,439.453,999.512,-856.934
1738836522.940,-818.848,-794.434,-485.352,-442.383,689.941
1738836522.944,-1000.000,-1000.000,-853.516,-1000.000,999.512
1738836522.948,-859.375,-1000.000,-944.336,-1000.000,946.289
1738836522.952,592.285,311.035,-202.148,168.945,-312.988
1738836522.956,897.949,985.840,450.195,999.512,-1000.000
1738836522.960,-667.480,-586.426,-437.500,-257.324,300.781
1738836522.963,-1000.000,-1000.000,-833.496,-1000.000,999.512
1738836522.967,-1000.000,-1000.000,-895.508,-1000.000,999.512
1738836522.971,157.715,4.395,-350.098,-66.406,21.484
1738836522.975,999.512,999.512,439.941,999.512,-1000.000
1738836522.979,-264.160,-194.336,-274.902,36.621,98.633
1738836522.981,-1000.000,-1000.000,-814.453,-1000.000,999.512
1738836522.985,-1000.000,-1000.000,-922.363,-1000.000,999.512
1738836522.989,-59.570,-210.449,-550.293,-263.672,174.805
1738836522.993,999.512,999.512,456.543,999.512,-1000.000
1738836522.997,-60.059,30.273,-99.121,171.387,-117.676
1738836523.001,-1000.000,-1000.000,-806.641,-1000.000,999.512
1738836523.005,-1000.000,-1000.000,-897.461,-1000.000,999.512
1738836523.008,-270.508,-265.137,-647.461,-255.371,229.492
1738836523.012,999.512,999.512,452.637,999.512,-1000.000
1738836523.016,170.898,171.875,2.930,171.387,-203.125
1738836523.020,-1000.000,-1000.000,-818.359,-1000.000,999.512
1738836523.024,-1000.000,-1000.000,-875.000,-1000.000,999.512
1738836523.027,-255.371,-255.371,-712.891,-258.789,223.633
1738836523.031,999.512,999.512,403.320,999.512,-1000.000
1738836523.035,171.387,166.016,55.664,217.285,-196.777
1738836523.039,-1000.000,-1000.000,-798.340,-1000.000,997.070
1738836523.043,-1000.000,-1000.000,-818.848,-1000.000,999.512
1738836523.047,-255.859,-366.699,-797.852,-458.496,354.492
1738836523.051,999.512,999.512,243.164,999.512,-1000.000
1738836523.054,161.621,229.004,268.066,438.477,-278.320
1738836523.058,-1000.000,-1000.000,-666.016,-937.012,979.492
1738836523.062,-1000.000,-1000.000,-865.723,-1000.000,999.512
1738836523.066,-461.914,-548.828,-853.027,-623.047,532.715
1738836523.070,999.512,999.512,108.887,959.473,-1000.000
1738836523.071,393.555,453.125,248.535,633.301,-537.598
1738836523.075,-982.910,-958.496,-717.773,-865.234,901.367
1738836523.079,-1000.000,-1000.000,-838.867,-1000.000,999.512
1738836523.083,-504.395,-748.535,-894.043,-856.934,709.961
1738836523.087,979.004,795.898,-60.059,581.055,-790.039
1738836523.091,598.145,696.289,363.281,931.152,-821.777
1738836523.095,-887.207,-845.703,-559.570,-613.770,705.078
1738836523.098,-1000.000,-1000.000,-752.441,-1000.000,999.512
1738836523.102,-833.984,-946.777,-884.766,-1000.000,890.625
1738836523.106,612.793,421.387,-218.750,184.082,-443.848
1738836523.110,923.340,987.305,457.031,999.512,-1000.000
1738836523.114,-604.492,-562.012,-425.781,-269.043,398.926
1738836523.116,-1000.000,-1000.000,-843.750,-1000.000,999.512
1738836523.120,-956.543,-1000.000,-965.332,-1000.000,999.512
1738836523.124,300.293,77.637,-304.688,-36.621,-87.402
1738836523.128,999.512,999.512,505.371,999.512,-1000.000
1738836523.132,-270.020,-242.188,-333.496,-59.570,133.789
1738836523.136,-1000.000,-1000.000,-834.473,-1000.000,999.512
1738836523.140,-1000.000,-1000.000,-884.766,-1000.000,999.512
1738836523.143,-0.977,-132.324,-415.039,-226.074,169.434
1738836523.147,999.512,999.512,448.242,999.512,-1000.000
1738836523.151,-62.012,-27.344,-188.477,165.039,-72.266
1738836523.155,-1000.000,-1000.000,-800.781,-1000.000,999.512
1738836523.159,-1000.000,-1000.000,-895.996,-1000.000,999.512
1738836523.161,-199.707,-267.578,-658.203,-255.371,232.910
1738836523.165,999.512,999.512,405.762,999.512,-1000.000
1738836523.169,160.645,157.715,-21.484,171.875,-202.637
1738836523.173,-1000.000,-1000.000,-822.754,-1000.000,999.512
1738836523.177,-1000.000,-1000.000,-889.160,-1000.000,999.512
1738836523.181,-255.371,-256.348,-695.801,-255.371,223.633
1738836523.185,999.512,999.512,409.668,999.512,-1000.000
1738836523.188,170.898,168.457,60.547,165.039,-199.707
1738836523.192,-1000.000,-1000.000,-813.965,-1000.000,999.512
1738836523.196,-1000.000,-1000.000,-829.590,-1000.000,999.512
1738836523.200,-255.371,-319.336,-739.258,-390.137,288.086
1738836523.204,999.512,999.512,307.129,999.512,-1000.000
1738836523.221,166.016,183.594,104.980,375.488,-270.996
1738836523.225,-1000.000,-1000.000,-841.797,-956.543,971.680
1738836523.229,-1000.000,-1000.000,-841.797,-1000.000,999.512
1738836523.233,-344.727,-489.746,-849.121,-521.973,459.961
1738836523.237,999.512,999.512,88.379,966.797,-1000.000
1738836523.241,235.352,293.457,219.238,497.559,-316.406
1738836523.245,-965.820,-967.285,-699.707,-865.234,940.430
1738836523.248,-1000.000,-1000.000,-845.215,-1000.000,999.512
1738836523.252,-546.875,-698.242,-904.785,-735.352,654.297
1738836523.256,999.512,898.438,4.883,744.629,-909.668
1738836523.260,520.020,597.656,359.863,902.832,-743.652
1738836523.264,-917.480,-918.457,-622.070,-598.633,766.602
1738836523.266,-1000.000,-1000.000,-840.332,-1000.000,999.512
1738836523.270,-748.535,-911.621,-928.711,-934.082,843.750
1738836523.274,776.367,518.066,-158.203,342.773,-542.969
1738836523.278,789.062,903.320,396.484,999.512,-1000.000
1738836523.282,-746.582,-667.480,-499.512,-267.090,478.027
1738836523.286,-1000.000,-1000.000,-811.035,-1000.000,999.512
1738836523.290,-951.172,-1000.000,-933.105,-1000.000,999.512
1738836523.293,374.023,129.883,-303.223,42.969,-173.828
1738836523.297,999.512,999.512,496.094,999.512,-1000.000
1738836523.301,-450.195,-334.473,-294.434,-66.895,256.836
1738836523.305,-1000.000,-1000.000,-828.125,-1000.000,999.512
1738836523.309,-1000.000,-1000.000,-930.664,-1000.000,999.512
1738836523.311,48.340,-90.332,-440.918,-167.480,75.195
1738836523.315,999.512,999.512,499.023,999.512,-1000.000
1738836523.319,-167.480,-92.773,-178.223,138.672,14.160
1738836523.323,-1000.000,-1000.000,-833.984,-1000.000,999.512
1738836523.327,-1000.000,-1000.000,-894.043,-1000.000,999.512
1738836523.331,-167.480,-263.672,-563.477,-256.836,225.098
1738836523.335,999.512,999.512,453.613,999.512,-1000.000
1738836523.338,55.176,126.953,-80.566,171.387,-188.477
1738836523.342,-1000.000,-1000.000,-780.762,-1000.000,999.512
1738836523.346,-1000.000,-1000.000,-815.430,-1000.000,999.512
1738836523.350,-263.672,-258.789,-708.984,-255.371,224.609
1738836523.354,999.512,999.512,383.789,999.512,-1000.000
1738836523.356,171.387,170.898,60.547,166.016,-201.172
1738836523.360,-1000.000,-1000.000,-803.223,-1000.000,999.512
1738836523.364,-1000.000,-1000.000,-876.465,-1000.000,999.512
1738836523.368,-255.859,-269.531,-763.184,-361.816,255.859
1738836523.372,999.512,999.512,346.680,999.512,-1000.000
1738836523.376,166.504,165.039,101.562,293.945,-221.680
1738836523.380,-1000.000,-1000.000,-832.520,-989.258,986.816
1738836523.383,-1000.000,-1000.000,-830.078,-1000.000,999.512
1738836523.387,-345.703,-448.730,-754.883,-546.875,487.793
1738836523.391,999.512,999.512,223.633,999.512,-1000.000
1738836523.395,272.461,326.660,169.434,497.559,-424.805
1738836523.399,-997.070,-988.770,-767.090,-932.617,939.453
1738836523.401,-1000.000,-1000.000,-821.777,-1000.000,999.512
1738836523.405,-518.066,-623.535,-900.391,-751.465,585.938
1738836523.409,999.512,979.492,-2.930,780.762,-993.164
1738836523.413,491.211,543.457,303.223,777.344,-637.207
1738836523.417,-924.805,-928.711,-656.250,-760.742,844.238
1738836523.421,-1000.000,-1000.000,-827.148,-1000.000,999.512
1738836523.425,-676.270,-842.285,-929.199,-937.500,807.617
1738836523.428,862.305,646.484,-93.262,395.508,-628.418
1738836523.432,759.277,827.637,434.082,999.512,-968.262
1738836523.436,-750.488,-734.863,-562.500,-448.242,555.176
1738836523.440,-1000.000,-1000.000,-840.332,-1000.000,999.512
1738836523.444,-881.348,-1000.000,-936.035,-1000.000,963.379
1738836523.446,481.445,241.211,-257.324,69.336,-267.578
1738836523.450,999.512,999.512,435.547,999.512,-1000.000
1738836523.454,-442.871,-429.199,-424.805,-166.016,260.742
1738836523.458,-1000.000,-1000.000,-823.242,-1000.000,999.512
1738836523.491,18.066,60.547,-98.633,171.875,-127.441
1738836523.495,-1000.000,-1000.000,-829.102,-1000.000,999.512
1738836523.499,-1000.000,-1000.000,-887.207,-1000.000,999.512
1738836523.503,-265.137,-263.184,-676.270,-255.371,229.004
1738836523.507,999.512,999.512,387.695,999.512,-1000.000
1738836523.511,170.898,171.875,15.625,171.387,-203.125
1738836523.515,-1000.000,-1000.000,-724.609,-1000.000,999.512
1738836523.518,-1000.000,-1000.000,-800.293,-1000.000,999.512
1738836523.522,-255.371,-255.371,-754.883,-263.672,223.633
1738836523.526,999.512,999.512,347.656,999.512,-1000.000
1738836523.530,170.898,164.551,80.566,262.207,-195.312
1738836523.534,-1000.000,-1000.000,-812.500,-992.188,995.605
1738836523.537,-1000.000,-1000.000,-844.727,-1000.000,999.512
1738836523.541,-255.371,-402.832,-825.195,-455.566,387.695
1738836523.545,999.512,999.512,236.816,999.512,-1000.000
1738836523.549,161.621,251.953,115.234,479.004,-355.469
1738836523.553,-1000.000,-1000.000,-845.703,-916.016,953.125
1738836523.557,-1000.000,-1000.000,-809.570,-1000.000,999.512
1738836523.561,-461.914,-586.426,-849.609,-613.770,544.434
1738836523.564,999.512,999.512,53.223,937.500,-1000.000
1738836523.568,385.742,477.539,257.812,721.191,-555.664
1738836523.572,-964.355,-954.102,-664.062,-769.043,892.090
1738836523.576,-1000.000,-1000.000,-799.316,-1000.000,999.512
1738836523.580,-628.906,-800.293,-906.738,-844.238,749.512
1738836523.596,966.309,736.816,-101.074,558.594,-750.977
1738836523.600,605.957,735.352,387.695,999.512,-856.934
1738836523.604,-894.531,-823.242,-525.879,-497.070,679.199
1738836523.608,-1000.000,-1000.000,-842.285,-1000.000,999.512
1738836523.612,-858.398,-981.934,-934.570,-1000.000,937.500
1738836523.616,580.566,344.727,-176.270,155.273,-340.820
1738836523.620,930.664,999.512,476.562,999.512,-1000.000
1738836523.623,-615.723,-526.367,-445.801,-211.914,337.891
1738836523.627,-1000.000,-1000.000,-835.938,-1000.000,999.512
1738836523.631,-1000.000,-1000.000,-930.664,-1000.000,999.512
1738836523.635,159.668,43.457,-374.023,-60.059,-63.965
1738836523.639,999.512,999.512,476.562,999.512,-1000.000
1738836523.641,-270.508,-213.379,-299.805,-23.438,112.305
1738836523.645,-1000.000,-1000.000,-838.867,-1000.000,999.512
1738836523.649,-1000.000,-1000.000,-922.852,-1000.000,999.512
1738836523.653,-60.059,-167.480,-536.621,-268.066,144.043
1738836523.657,999.512,999.512,463.379,999.512,-1000.000
1738836523.661,-60.059,3.418,-91.797,171.875,-15.137
1738836523.665,-1000.000,-1000.000,-805.176,-1000.000,999.512
1738836523.668,-1000.000,-1000.000,-900.879,-1000.000,999.512
1738836523.672,-270.508,-266.113,-638.184,-255.371,236.816
1738836523.676,999.512,999.512,450.684,999.512,-1000.000
1738836523.680,171.387,165.039,-3.906,171.387,-202.637
1738836523.684,-1000.000,-1000.000,-798.340,-1000.000,999.512
1738836523.686,-1000.000,-1000.000,-865.234,-1000.000,999.512
1738836523.690,-255.371,-255.859,-723.633,-255.371,223.633
1738836523.694,999.512,999.512,360.840,999.512,-1000.000
1738836523.698,171.387,167.969,56.152,162.109,-197.266
1738836523.702,-1000.000,-1000.000,-804.688,-1000.000,998.047
1738836523.706,-1000.000,-1000.000,-839.844,-1000.000,999.512
1738836523.710,-255.859,-331.543,-798.340,-461.914,338.379
1738836523.713,999.512,999.512,244.141,999.512,-1000.000
1738836523.717,164.062,203.613,225.098,386.230,-257.324
1738836523.721,-1000.000,-1000.000,-688.965,-964.355,984.863
1738836523.725,-1000.000,-1000.000,-851.562,-1000.000,999.512
1738836523.729,-411.621,-522.461,-871.582,-616.699,517.090
1738836523.731,999.512,999.512,123.535,974.609,-1000.000
1738836523.735,378.906,412.109,226.562,603.516,-501.465
1738836523.739,-959.961,-967.773,-759.277,-891.113,911.133
1738836523.743,-1000.000,-1000.000,-840.820,-1000.000,999.512
1738836523.747,-541.992,-721.191,-895.996,-833.008,685.059
1738836523.751,999.512,859.375,-29.297,614.258,-854.980
1738836523.755,585.449,636.719,349.121,925.781,-779.785
1738836523.758,-876.465,-890.625,-580.078,-611.328,739.746
1738836523.762,-1000.000,-1000.000,-777.832,-1000.000,999.512
1738836523.766,-734.375,-929.688,-921.875,-1000.000,878.906
1738836523.770,748.047,474.609,-200.684,210.449,-508.301
1738836523.774,888.184,936.035,479.004,999.512,-1000.000
1738836523.776,-617.676,-627.930,-397.949,-268.066,533.203
1738836523.780,-1000.000,-1000.000,-838.867,-1000.000,999.512
1738836523.784,-938.965,-1000.000,-942.383,-1000.000,999.512
1738836523.788,353.027,108.887,-277.832,-9.277,-137.207
1738836523.792,999.512,999.512,492.188,999.512,-1000.000
1738836523.796,-325.684,-300.293,-345.703,-61.035,201.172
1738836523.800,-1000.000,-1000.000,-824.219,-1000.000,999.512
1738836523.803,-1000.000,-1000.000,-884.766,-1000.000,999.512
1738836523.807,49.316,-111.328,-436.035,-197.754,143.066
1738836523.811,999.512,999.512,438.477,999.512,-1000.000
1738836523.815,-136.719,-76.172,-187.500,161.133,-35.156
1738836523.819,-1000.000,-1000.000,-813.965,-1000.000,999.512
1738836523.822,-1000.000,-1000.000,-897.949,-1000.000,999.512
1738836523.826,-165.527,-269.043,-638.184,-255.371,221.680
1738836523.830,999.512,999.512,416.016,999.512,-1000.000
1738836523.834,55.176,140.137,-14.160,171.875,-159.668
1738836523.838,-1000.000,-1000.000,-800.781,-1000.000,999.512
1738836523.842,-1000.000,-1000.000,-874.023,-1000.000,999.512
1738836523.846,-263.184,-257.812,-682.129,-255.371,227.051
1738836523.849,999.512,999.512,395.996,999.512,-1000.000
1738836523.853,170.898,169.434,30.762,166.504,-200.195
1738836523.857,-1000.000,-1000.000,-825.195,-1000.000,999.512
1738836523.861,-1000.000,-1000.000,-833.984,-1000.000,999.512
1738836523.865,-255.371,-292.480,-740.234,-363.770,275.391
1738836523.867,999.512,999.512,276.855,999.512,-1000.000
1738836523.871,166.016,166.992,91.797,344.238,-246.582
1738836523.875,-1000.000,-1000.000,-812.988,-967.773,981.445
1738836523.879,-1000.000,-1000.000,-844.238,-1000.000,999.512
1738836523.883,-361.328,-486.816,-846.191,-542.969,456.543
1738836523.887,999.512,999.512,150.391,999.512,-1000.000
1738836523.891,273.926,350.586,296.387,547.363,-380.859
1738836523.894,-998.047,-986.816,-625.000,-900.879,956.543
1738836523.898,-1000.000,-1000.000,-846.680,-1000.000,999.512
1738836523.902,-548.828,-662.598,-894.531,-744.141,622.559
1738836523.906,999.512,937.988,5.371,769.531,-951.172
1738836523.910,497.559,571.777,313.965,815.430,-689.941
1738836523.911,-932.129,-922.852,-647.461,-712.891,807.129
1738836523.915,-1000.000,-1000.000,-847.168,-1000.000,999.512
1738836523.919,-751.465,-874.023,-922.363,-950.195,818.848
1738836523.923,780.273,586.426,-170.410,374.512,-605.469
1738836523.927,776.855,866.699,377.930,999.512,-978.027
1738836523.931,-762.207,-699.219,-486.816,-447.754,549.316
1738836523.935,-1000.000,-1000.000,-773.926,-1000.000,999.512
1738836523.938,-951.172,-1000.000,-905.762,-1000.000,984.375
1738836523.942,373.535,196.289,-277.832,48.828,-232.910
1738836523.946,999.512,999.512,508.789,999.512,-1000.000
1738836523.950,-448.730,-383.301,-333.496,-166.992,303.223
1738836523.954,-1000.000,-1000.000,-831.543,-1000.000,999.512
1738836523.956,-1000.000,-1000.000,-936.035,-1000.000,999.512
1738836523.960,65.918,-43.457,-409.668,-166.992,44.922
1738836523.964,999.512,999.512,500.000,999.512,-1000.000
1738836523.968,-166.504,-128.906,-241.211,55.176,38.574
1738836523.972,-1000.000,-1000.000,-833.496,-1000.000,999.512
1738836523.976,-1000.000,-1000.000,-882.324,-1000.000,999.512
1738836523.980,-128.418,-246.582,-540.039,-263.184,211.914
1738836523.983,999.512,999.512,466.309,999.512,-1000.000
1738836523.987,50.293,92.285,-104.004,171.387,-160.645
1738836523.991,-1000.000,-1000.000,-780.273,-1000.000,999.512
1738836523.995,-1000.000,-1000.000,-817.871,-1000.000,999.512
1738836523.999,-263.184,-260.742,-716.797,-255.371,226.562
1738836524.016,999.512,999.512,375.977,999.512,-1000.000
1738836524.020,170.898,171.387,50.293,167.480,-202.637
1738836524.024,-1000.000,-1000.000,-804.199,-1000.000,999.512
1738836524.028,-1000.000,-1000.000,-885.254,-1000.000,999.512
1738836524.032,-255.371,-255.371,-758.301,-341.309,232.422
1738836524.036,999.512,999.512,359.863,999.512,-1000.000
1738836524.040,171.387,163.574,106.934,272.461,-197.754
1738836524.043,-1000.000,-1000.000,-833.008,-995.117,994.629
1738836524.047,-1000.000,-1000.000,-841.797,-1000.000,999.512
1738836524.051,-243.164,-403.809,-760.742,-503.418,425.293
1738836524.055,999.512,999.512,181.641,994.629,-1000.000
1738836524.059,171.387,193.848,129.883,404.297,-366.699
1738836524.061,-981.445,-991.699,-709.961,-916.016,954.102
1738836524.065,-1000.000,-1000.000,-773.926,-1000.000,999.512
1738836524.069,-457.520,-604.980,-890.625,-698.730,562.988
1738836524.073,999.512,999.512,34.180,840.820,-1000.000
1738836524.077,452.637,500.000,301.270,764.160,-571.289
1738836524.081,-929.199,-947.754,-649.902,-750.000,889.160
1738836524.085,-1000.000,-1000.000,-819.336,-1000.000,999.512
1738836524.088,-620.117,-824.219,-926.758,-867.676,768.555
1738836524.092,951.172,698.242,-66.406,502.930,-709.473
1738836524.096,663.086,757.812,427.734,999.512,-907.227
1738836524.100,-832.031,-809.570,-572.266,-442.871,624.023
1738836524.104,-1000.000,-1000.000,-831.055,-1000.000,999.512
1738836524.106,-855.469,-1000.000,-924.316,-1000.000,942.383
1738836524.110,580.078,293.457,-229.492,137.207,-321.777
1738836524.114,934.570,999.512,431.152,999.512,-1000.000
1738836524.118,-610.352,-503.906,-433.594,-167.969,312.012
1738836524.122,-1000.000,-1000.000,-809.570,-1000.000,999.512
1738836524.126,-1000.000,-1000.000,-923.828,-1000.000,999.512
1738836524.130,160.156,10.254,-381.836,-62.988,-21.973
1738836524.133,999.512,999.512,519.043,999.512,-1000.000
1738836524.137,-270.508,-199.219,-170.410,27.832,142.578
1738836524.141,-1000.000,-1000.000,-812.988,-1000.000,999.512
1738836524.145,-1000.000,-1000.000,-946.777,-1000.000,999.512
1738836524.149,-60.059,-202.148,-494.629,-264.160,177.734
1738836524.152,999.512,999.512,476.074,999.512,-1000.000
1738836524.156,-60.059,23.438,-153.320,171.875,-110.352
1738836524.160,-1000.000,-1000.000,-831.055,-1000.000,999.512
1738836524.164,-1000.000,-1000.000,-882.812,-1000.000,999.512
1738836524.168,-251.953,-247.070,-632.812,-236.816,229.980
1738836524.172,999.512,999.512,379.395,999.512,-1000.000
1738836524.176,82.520,83.496,-57.617,83.496,-203.125
1738836524.179,-1000.000,-1000.000,-750.000,-1000.000,999.512
1738836524.183,-1000.000,-1000.000,-815.430,-1000.000,999.512
1738836524.187,-257.812,-257.324,-765.625,-259.277,223.633
1738836524.191,999.512,999.512,335.449,999.512,-1000.000
1738836524.195,170.898,166.016,75.195,186.035,-196.777
1738836524.197,-1000.000,-1000.000,-815.918,-1000.000,997.559
1738836524.201,-1000.000,-1000.000,-874.023,-1000.000,999.512
1738836524.205,-255.371,-365.723,-813.477,-459.961,348.145
1738836524.209,999.512,999.512,259.277,999.512,-1000.000
1738836524.213,161.621,225.586,115.723,399.902,-320.801
1738836524.217,-1000.000,-1000.000,-824.707,-957.520,960.938
1738836524.221,-1000.000,-1000.000,-834.473,-1000.000,999.512
1738836524.224,-461.914,-546.875,-791.504,-627.930,562.012
1738836524.228,999.512,999.512,172.852,966.797,-1000.000
1738836524.232,385.742,439.941,232.422,606.445,-533.691
1738836524.236,-964.355,-959.961,-696.777,-894.531,903.320
1738836524.240,-1000.000,-1000.000,-794.922,-1000.000,999.512
1738836524.241,-611.328,-738.770,-913.574,-858.398,691.406
1738836524.245,977.539,827.637,-79.590,581.055,-833.008
1738836524.249,601.562,678.711,375.488,931.641,-817.383
1738836524.253,-888.184,-857.422,-564.453,-615.723,704.102
1738836524.257,-1000.000,-1000.000,-832.031,-1000.000,999.512
1738836524.261,-804.688,-942.383,-929.688,-1000.000,906.250
1738836524.265,650.879,436.523,-138.672,160.156,-414.551
1738836524.268,917.480,972.656,490.723,999.512,-1000.000
1738836524.272,-605.469,-581.543,-469.727,-270.020,390.137
1738836524.276,-1000.000,-1000.000,-825.195,-1000.000,999.512
1738836524.280,-968.262,-1000.000,-930.664,-1000.000,999.512
1738836524.284,278.809,87.891,-339.844,-55.664,-106.445
1738836524.286,999.512,999.512,474.121,999.512,-1000.000
1738836524.290,-267.090,-265.137,-324.707,-59.570,149.414
1738836524.294,-1000.000,-1000.000,-828.125,-1000.000,999.512
1738836524.298,-1000.000,-1000.000,-921.387,-1000.000,999.512
1738836524.302,28.809,-131.348,-523.438,-256.836,118.164
1738836524.306,999.512,999.512,477.539,999.512,-1000.000
1738836524.310,-63.477,-43.945,-92.773,169.434,20.996
1738836524.313,-1000.000,-1000.000,-826.172,-1000.000,999.512
1738836524.317,-1000.000,-1000.000,-923.340,-1000.000,999.512
1738836524.321,-168.457,-268.066,-612.793,-255.371,239.258
1738836524.325,999.512,999.512,430.664,999.512,-1000.000
1738836524.329,146.484,151.855,-54.199,171.875,-203.125
1738836524.331,-1000.000,-1000.000,-825.195,-1000.000,999.512
1738836524.335,-1000.000,-1000.000,-857.910,-1000.000,999.512
1738836524.339,-256.348,-256.836,-674.316,-255.371,223.633
1738836524.343,999.512,999.512,359.375,999.512,-1000.000
1738836524.347,171.387,168.945,38.086,164.551,-200.195
1738836524.351,-1000.000,-1000.000,-786.621,-1000.000,999.512
1738836524.355,-1000.000,-1000.000,-829.590,-1000.000,999.512
1738836524.358,-255.859,-307.617,-793.945,-402.832,280.273
1738836524.362,999.512,999.512,241.699,999.512,-1000.000
1738836524.366,166.016,169.434,187.500,377.441,-226.074
1738836524.370,-1000.000,-1000.000,-714.844,-959.473,988.281
1738836524.374,-1000.000,-1000.000,-864.746,-1000.000,999.512
1738836524.391,-361.328,-499.512,-863.281,-549.316,482.910
1738836524.395,999.512,999.512,152.832,999.512,-1000.000
1738836524.399,280.762,368.652,190.430,585.938,-466.309
1738836524.403,-1000.000,-994.141,-779.785,-878.418,932.617
1738836524.407,-1000.000,-1000.000,-825.195,-1000.000,999.512
1738836524.411,-460.449,-646.484,-881.836,-738.281,614.258
1738836524.415,999.512,896.973,-1.953,747.559,-899.414
1738836524.418,497.070,590.332,318.848,879.395,-725.098
1738836524.422,-930.176,-920.410,-607.422,-630.371,788.574
1738836524.426,-1000.000,-1000.000,-775.391,-1000.000,999.512
1738836524.430,-751.465,-908.691,-927.246,-940.430,855.957
1738836524.434,779.785,527.832,-145.020,355.957,-535.156
1738836524.436,776.855,892.090,455.078,999.512,-1000.000
1738836524.440,-762.207,-680.176,-474.609,-341.309,503.906
1738836524.444,-1000.000,-1000.000,-835.449,-1000.000,999.512
1738836524.448,-951.172,-1000.000,-938.477,-1000.000,996.582
1738836524.452,373.535,143.066,-220.703,45.898,-176.270
1738836524.456,999.512,999.512,536.133,999.512,-1000.000
1738836524.460,-449.707,-350.586,-363.770,-112.793,230.469
