timestamps,TP9,AF7,AF8,TP10,Right AUX
1738233855.380,1.953,-76.660,-8.301,-34.180,-309.082
1738233855.384,12.695,-68.848,-4.395,-8.789,-156.250
1738233855.388,-10.254,-63.965,3.418,-4.395,-9.766
1738233855.392,-42.480,-71.289,-10.254,-19.531,-74.707
1738233855.396,-59.570,-73.242,-17.578,-39.551,-174.316
1738233855.400,-23.926,-68.359,-10.254,-44.922,145.020
1738233855.404,-7.324,-77.637,-16.602,-25.391,590.820
1738233855.407,-26.367,-78.613,-26.855,-16.113,56.152
1738233855.411,-49.805,-88.379,-31.738,-35.645,-280.762
1738233855.415,-58.105,-100.098,-38.086,-40.527,-34.668
1738233855.419,-26.855,-85.449,-42.480,-38.574,-101.562
1738233855.423,11.230,-68.359,-39.062,-20.020,-270.996
1738233855.425,19.043,-71.777,-36.133,8.789,-195.801
1738233855.429,-20.020,-78.613,-40.527,-5.371,-72.754
1738233855.433,-55.664,-68.848,-40.039,-35.645,-159.668
1738233855.437,-26.367,-48.340,-36.621,-36.133,-308.594
1738233855.441,0.000,-43.945,-37.109,-26.855,-169.434
1738233855.445,6.836,-50.781,-43.457,0.488,161.133
1738233855.449,-14.160,-44.922,-57.617,-9.766,79.102
1738233855.452,-58.594,-46.387,-66.406,-21.484,-25.391
1738233855.456,-51.270,-41.992,-62.500,-23.926,-57.617
1738233855.460,-18.555,-41.016,-67.871,-50.781,359.863
1738233855.464,-10.742,-40.527,-81.055,-33.691,637.207
1738233855.468,-18.066,-48.340,-78.125,-10.254,25.879
1738233855.470,-46.387,-65.918,-79.102,-20.996,-227.051
1738233855.474,-37.598,-54.688,-81.543,-37.109,-180.176
1738233855.478,12.695,-43.945,-72.266,-29.297,-264.648
1738233855.482,22.949,-44.922,-69.824,-21.484,-228.027
1738233855.486,4.883,-53.223,-72.754,-21.973,-86.426
1738233855.490,-40.039,-67.871,-77.637,-31.250,48.340
1738233855.494,-60.547,-59.082,-75.684,-36.621,11.230
1738233855.497,-19.043,-41.504,-64.453,-24.414,-193.359
1738233855.501,-1.465,-54.199,-62.500,1.953,-51.270
1738233855.505,-15.625,-57.129,-68.848,4.395,185.547
1738233855.509,-41.992,-54.688,-69.336,-24.902,-100.586
1738233855.513,-49.805,-60.547,-66.406,-40.039,-302.734
1738233855.515,-3.418,-53.711,-62.012,-30.273,92.773
1738233855.519,16.602,-35.156,-59.570,-31.250,351.074
1738233855.523,-0.977,-22.461,-59.570,-38.574,-137.207
1738233855.527,-25.391,-37.109,-55.664,-37.598,-257.324
1738233855.531,-52.734,-42.969,-53.223,-32.227,-156.738
1738233855.535,-27.344,-29.785,-57.617,-27.344,-158.691
1738233855.539,-4.395,-23.438,-59.082,-25.391,-188.477
1738233855.542,-11.719,-31.250,-57.617,-22.949,-132.324
1738233855.546,-32.715,-56.152,-56.152,-1.953,464.844
1738233855.550,-68.848,-54.688,-62.988,-4.883,468.750
1738233855.554,-37.598,-24.902,-64.453,-29.297,-198.242
1738233855.558,2.441,-17.578,-62.988,-22.949,-230.469
1738233855.560,0.488,-12.695,-64.453,-16.113,-71.777
1738233855.564,-21.484,-21.484,-61.035,-20.996,-180.176
1738233855.568,-57.617,-38.086,-55.176,-28.809,-264.160
1738233855.572,-39.062,-32.715,-51.270,-31.250,-229.004
1738233855.576,-0.488,-24.902,-55.176,-34.668,-145.020
1738233855.580,0.000,-37.109,-60.059,-42.480,64.941
1738233855.584,-11.230,-51.758,-58.594,-28.320,15.137
1738233855.587,-37.598,-70.801,-56.152,-20.996,56.641
1738233855.591,-28.809,-71.777,-57.129,-30.762,353.516
1738233855.595,10.742,-57.129,-51.758,-33.691,-67.871
1738233855.599,9.277,-68.848,-45.410,-19.531,-228.516
1738233855.603,-6.836,-76.660,-45.898,-15.137,-85.449
1738233855.636,-34.668,-70.801,-47.852,-23.438,-142.090
1738233855.640,-34.668,-48.828,-45.410,-24.902,-228.516
1738233855.644,-1.465,-38.086,-41.992,-21.973,-149.414
1738233855.648,4.883,-38.086,-40.527,-16.113,144.531
1738233855.652,-13.672,-32.715,-41.016,-11.230,32.715
1738233855.656,-46.387,-47.363,-44.434,-17.090,-47.363
1738233855.660,-46.387,-50.293,-47.852,-28.809,69.336
1738233855.663,0.488,-42.969,-48.340,-19.043,447.266
1738233855.667,-0.488,-36.133,-50.781,-16.113,420.410
1738233855.671,-17.578,-39.551,-49.316,-23.438,-143.066
1738233855.675,-11.230,-60.547,-49.316,-26.367,-170.410
1738233855.679,-18.555,-74.219,-48.828,-24.902,227.051
1738233855.652,-8.301,-65.430,-51.758,-26.367,-74.707
1738233855.656,-5.859,-74.707,-52.246,-21.973,-335.449
1738233855.660,-6.348,-87.402,-45.410,-21.484,-157.715
1738233855.664,-23.438,-91.797,-39.062,-20.508,-157.715
1738233855.668,-52.246,-100.098,-34.180,-20.508,-192.383
1738233855.672,-25.391,-90.332,-33.691,-13.184,-59.082
1738233855.676,-6.836,-89.355,-40.039,-6.348,85.938
1738233855.679,-19.043,-89.844,-42.480,-24.902,88.379
1738233855.683,-29.785,-83.496,-38.574,-33.203,-162.598
1738233855.687,-55.176,-89.355,-39.062,-32.227,-247.559
1738233855.691,-50.293,-85.938,-35.156,-24.902,-47.852
1738233855.695,-8.789,-70.312,-32.227,-16.602,-70.801
1738233855.695,2.441,-72.266,-38.086,-29.297,-196.289
1738233855.699,-16.602,-89.355,-41.016,-27.832,-215.820
1738233855.703,-49.805,-109.375,-42.969,-23.438,204.590
1738233855.707,-56.641,-102.051,-39.062,-35.645,478.516
1738233855.711,-24.902,-80.078,-32.715,-29.297,-83.496
1738233855.715,-12.207,-77.148,-33.691,-18.555,-96.191
1738233855.719,-5.859,-93.262,-38.574,-7.812,409.180
1738233855.722,-25.391,-99.609,-41.016,3.418,145.996
1738233855.726,-49.805,-91.309,-35.645,-16.113,-169.434
1738233855.730,-29.297,-83.496,-28.320,-30.273,-60.059
1738233855.734,-26.855,-89.355,-26.855,-27.832,-2.930
1738233855.738,-33.203,-99.609,-31.738,-29.785,-105.957
1738233855.741,-60.547,-100.098,-33.203,-42.480,-235.840
1738233855.745,-81.055,-91.797,-32.715,-35.645,-152.344
1738233855.749,-26.367,-81.543,-37.109,-26.367,341.797
1738233855.753,-5.371,-66.895,-38.086,-26.855,123.535
1738233855.757,-24.902,-76.172,-36.621,-23.926,-235.352
1738233855.761,-45.898,-101.074,-40.039,-23.926,140.137
1738233855.765,-60.547,-98.633,-35.645,-23.926,234.375
1738233855.768,-33.691,-71.289,-28.809,-30.762,-153.809
1738233855.772,-11.230,-73.730,-34.180,-27.832,-287.109
1738233855.776,-20.996,-92.773,-41.504,-24.902,25.391
1738233855.780,-43.945,-95.703,-41.016,-35.156,128.906
1738233855.784,-55.664,-88.867,-42.969,-27.832,-203.125
1738233855.800,-35.645,-77.637,-48.828,-25.879,-248.535
1738233855.804,-16.602,-77.148,-45.898,-40.039,-73.242
1738233855.808,-12.695,-76.172,-43.945,-37.598,-18.066
1738233855.812,-26.855,-78.613,-51.758,-32.715,-163.086
1738233855.816,-55.176,-95.215,-56.641,-35.645,-174.805
1738233855.820,-47.363,-81.055,-50.781,-21.484,54.199
1738233855.824,-14.648,-66.406,-54.199,-24.902,-40.039
1738233855.827,-6.836,-76.660,-60.059,-26.367,-116.211
1738233855.831,-17.090,-82.520,-52.734,-16.113,83.496
1738233855.835,-50.781,-95.215,-47.363,-21.973,443.848
1738233855.839,-48.828,-79.102,-47.363,-29.297,258.301
1738233855.843,-7.324,-52.734,-49.805,-36.621,-229.492
1738233855.846,-0.977,-59.570,-48.340,-30.273,-39.062
1738233855.850,-13.672,-63.477,-49.316,-20.020,93.262
1738233855.854,-40.527,-73.242,-57.129,-25.879,-174.805
1738233855.858,-38.574,-65.918,-55.176,-25.879,-300.781
1738233855.862,-9.766,-56.152,-55.176,-13.184,-189.453
1738233855.866,-8.789,-61.523,-54.688,-11.230,38.086
1738233855.870,-25.391,-66.406,-54.199,-16.602,-13.184
1738233855.873,-52.734,-74.219,-56.152,-31.250,-249.023
1738233855.877,-62.988,-85.449,-58.594,-42.480,-3.418
1738233855.881,-22.461,-73.242,-63.477,-42.480,309.082
1738233855.885,-6.348,-60.059,-62.012,-37.598,-63.965
1738233855.889,-18.555,-68.848,-62.988,-32.715,-199.219
1738233855.892,-38.086,-81.055,-61.035,-26.367,33.691
1738233855.896,-53.223,-78.613,-61.035,-31.250,-100.586
1738233855.900,-23.926,-63.477,-64.941,-25.391,-241.699
1738233855.904,4.883,-66.406,-64.941,7.812,-91.797
1738233855.908,6.836,-68.848,-67.871,-1.465,133.789
1738233855.912,-0.977,-67.383,-59.082,19.043,161.133
1738233855.916,-22.949,-75.195,-40.527,16.602,27.344
1738233855.919,-26.855,-73.242,-35.645,-42.480,-116.211
1738233855.923,-19.043,-83.008,-37.109,-44.922,407.227
1738233855.927,-12.695,-85.938,-39.062,-25.879,535.156
1738233855.931,-44.434,-91.309,-36.133,-54.688,-110.352
1738233855.935,-92.773,-111.816,-27.344,-70.312,-251.953
1738233855.935,-96.680,-104.492,-24.414,-83.008,-207.520
1738233855.939,-68.848,-88.379,-20.996,-82.520,-254.395
1738233855.943,-72.754,-94.727,-9.277,-70.312,-215.332
1738233855.947,-120.117,-109.375,-3.906,-105.957,-169.434
1738233855.951,-131.348,-122.559,-4.883,-83.984,-184.570
1738233855.955,-129.883,-117.676,2.441,-86.426,-80.078
1738233855.959,-98.145,-113.281,1.953,-81.543,-68.848
1738233855.962,-84.961,-132.812,3.418,-70.312,108.887
1738233855.966,-121.582,-147.461,-2.441,-96.680,519.531
1738233855.970,-147.461,-151.367,-13.672,-85.938,75.684
1738233855.974,-158.691,-148.438,-8.301,-103.516,-321.289
1738233855.978,-118.164,-145.996,-5.371,-105.957,-157.227
1738233855.981,-100.586,-149.414,-7.812,-87.402,-133.789
1738233855.985,-105.469,-154.785,-8.301,-68.359,-196.777
1738233855.989,-125.000,-175.293,-13.672,-50.293,-180.664
1738233855.993,-123.047,-169.434,-22.461,-39.551,-84.473
1738233855.997,-70.801,-144.043,-34.180,-51.270,-137.207
1738233856.001,-46.387,-135.254,-32.715,-48.828,-6.348
1738233856.005,-41.992,-127.441,-27.832,-47.363,111.328
1738233856.008,-56.641,-142.578,-39.062,-41.992,425.293
1738233856.012,-79.590,-138.672,-42.969,-22.949,516.602
1738233856.016,-54.199,-107.422,-36.621,1.465,28.809
1738233856.020,-26.855,-102.051,-40.527,7.324,-65.918
1738233856.024,-31.250,-103.516,-45.898,-13.184,188.965
1738233856.040,-48.340,-106.934,-46.387,-34.180,-52.246
1738233856.044,-55.664,-115.723,-47.363,-46.387,-267.578
1738233856.048,-27.832,-99.121,-48.828,-40.527,-160.645
1738233856.052,-22.461,-83.008,-45.410,-19.043,-137.695
1738233856.056,-22.461,-78.125,-45.898,-1.953,-124.023
1738233856.060,-31.738,-75.195,-42.969,-9.766,-103.516
1738233856.064,-59.570,-83.496,-42.480,-24.902,89.355
1738233856.067,-35.645,-70.312,-42.969,-26.855,392.578
1738233856.071,0.488,-42.969,-47.363,-36.621,-48.340
1738233856.075,1.953,-47.852,-46.875,-32.227,-271.484
1738233856.079,-15.137,-68.359,-39.062,-12.207,139.648
1738233856.083,-51.758,-73.730,-42.969,-19.531,147.461
1738233856.070,-57.129,-60.059,-41.504,-41.992,-272.461
1738233856.074,-20.020,-57.617,-34.180,-13.672,-282.227
1738233856.078,2.441,-61.035,-28.809,12.207,16.113
1738233856.082,-4.395,-52.734,-28.320,-6.348,-58.594
1738233856.086,-43.457,-65.918,-34.668,-29.297,-274.414
1738233856.090,-48.340,-68.848,-36.621,-26.367,-90.820
1738233856.094,-9.766,-44.434,-34.668,-23.926,137.207
1738233856.097,6.836,-44.922,-39.062,-17.578,-48.340
1738233856.101,-6.836,-56.152,-40.039,-10.742,-172.363
1738233856.105,-41.504,-63.965,-40.527,-19.043,-190.430
1738233856.109,-52.734,-71.777,-45.410,-30.762,298.828
1738233856.113,-9.766,-46.875,-42.969,-30.273,348.145
1738233856.116,4.395,-32.227,-40.039,-20.020,-57.617
1738233856.120,-13.672,-40.527,-41.504,-24.902,-20.020
1738233856.124,-43.457,-48.340,-43.945,-47.363,-19.531
1738233856.128,-57.617,-55.664,-41.016,-41.016,-226.074
1738233856.132,-8.301,-40.039,-33.203,-28.809,-316.895
1738233856.136,22.461,-39.551,-29.297,-31.738,-72.754
1738233856.140,-1.465,-48.828,-32.227,-36.133,158.203
1738233856.143,-43.457,-50.781,-35.645,-30.273,-25.391
1738233856.147,-67.871,-53.223,-34.668,-33.691,-228.027
1738233856.151,-31.250,-47.852,-34.668,-38.574,-49.316
1738233856.155,-1.953,-36.621,-37.109,-46.387,59.082
1738233856.159,-14.648,-36.621,-38.574,-54.199,-142.578
1738233856.176,-33.691,-52.734,-40.039,-45.410,-180.176
1738233856.180,-61.523,-63.965,-37.109,-40.039,-108.398
1738233856.184,-29.785,-55.176,-33.691,-16.602,-103.516
1738233856.188,17.090,-44.922,-33.203,-10.742,-36.621
1738233856.192,18.555,-52.246,-28.320,-32.227,-68.359
1738233856.196,5.859,-82.520,-25.391,-3.418,409.180
1738233856.200,-32.715,-71.289,-29.297,3.906,347.656
1738233856.203,-56.152,-41.992,-38.574,-43.945,-159.668
1738233856.207,-12.695,-43.457,-48.828,-43.457,-33.691
1738233856.211,18.555,-50.781,-50.781,-6.836,407.715
1738233856.215,-0.977,-41.016,-53.711,-6.836,236.816
1738233856.219,-27.832,-52.246,-67.871,-20.996,-234.863
1738233856.220,-9.766,-56.641,-76.660,-17.090,-243.164
1738233856.224,30.762,-40.527,-79.102,-8.789,-195.312
1738233856.228,39.062,-44.434,-82.031,24.902,-163.574
1738233856.232,25.879,-51.758,-88.867,37.109,-158.203
1738233856.236,10.742,-61.523,-105.957,7.324,-92.773
1738233856.240,19.531,-56.641,-115.723,-12.695,43.457
1738233856.244,50.781,-42.480,-116.211,-20.996,64.941
1738233856.247,66.895,-44.922,-119.629,4.395,-7.324
1738233856.251,39.062,-57.129,-121.582,24.902,106.445
1738233856.255,14.648,-69.336,-126.465,33.203,496.094
1738233856.259,0.000,-55.176,-129.883,-4.395,47.852
1738233856.263,20.020,-46.387,-141.113,-47.852,-301.758
1738233856.266,47.852,-58.105,-149.414,-9.766,-107.910
1738233856.270,38.086,-58.594,-142.578,3.418,-119.141
1738233856.274,4.395,-65.918,-138.184,0.000,-188.477
1738233856.278,-22.949,-71.289,-135.742,3.906,-177.246
1738233856.282,8.301,-53.223,-125.977,4.883,-60.059
1738233856.286,46.875,-46.875,-125.488,9.766,72.266
1738233856.290,41.992,-46.387,-121.094,16.602,124.023
1738233856.293,11.719,-48.828,-109.375,15.137,-81.055
1738233856.297,-11.230,-71.289,-107.910,3.418,454.102
1738233856.301,1.953,-61.035,-102.539,-5.859,814.453
1738233856.305,31.250,-34.668,-99.609,-4.883,0.977
1738233856.309,32.227,-45.410,-101.562,-7.812,-230.469
1738233856.310,8.789,-53.223,-99.121,-6.836,-64.941
1738233856.314,-23.926,-63.477,-94.727,-0.488,-187.012
1738233856.318,-11.230,-61.523,-86.914,0.977,-278.809
1738233856.322,13.184,-43.457,-86.426,-6.836,-180.664
1738233856.326,-9.277,-42.969,-83.984,-0.977,-76.172
1738233856.330,-36.621,-50.781,-76.172,9.277,-63.965
1738233856.334,-43.945,-54.688,-78.613,-20.996,-93.750
1738233856.337,-17.090,-50.293,-77.148,-46.387,26.367
1738233856.341,18.555,-34.668,-73.730,-18.555,253.906
1738233856.345,8.301,-27.832,-76.660,-6.836,-67.383
1738233856.349,-5.371,-42.480,-74.219,-15.137,-115.723
1738233856.353,-37.109,-62.012,-75.684,-9.277,110.352
1738233856.355,-39.062,-54.688,-79.102,-20.996,-69.336
1738233856.359,-8.301,-41.504,-75.684,-33.691,-262.695
1738233856.363,-6.348,-43.457,-73.730,-21.484,-186.035
1738233856.367,-12.695,-53.223,-73.242,-21.973,-87.891
1738233856.401,17.578,-60.547,-62.500,-9.766,-129.395
1738233856.405,10.254,-73.242,-53.223,-4.883,-91.797
1738233856.409,-11.230,-89.355,-48.340,9.766,-71.289
1738233856.413,-28.809,-77.148,-57.617,-9.766,-77.148
1738233856.417,-19.043,-62.988,-62.500,-21.484,-205.078
1738233856.421,-12.695,-57.617,-62.988,-7.812,-177.734
1738233856.425,-17.578,-52.734,-61.523,-13.672,113.770
1738233856.428,-25.391,-59.082,-68.848,-36.621,394.531
1738233856.432,-49.805,-60.547,-88.379,-56.152,-14.648
1738233856.436,-25.391,-49.805,-99.609,-51.758,-306.152
1738233856.440,12.207,-41.504,-113.770,-44.434,-182.129
1738233856.444,-5.859,-36.621,-130.371,-65.918,-143.555
1738233856.445,-24.902,-49.805,-144.531,-75.195,-227.539
1738233856.449,-43.945,-66.406,-152.832,-57.617,-215.820
1738233856.453,-31.738,-60.547,-149.902,-40.527,-97.168
1738233856.457,-2.930,-44.434,-141.113,-25.879,-40.527
1738233856.461,-8.301,-51.270,-132.812,-22.461,-82.520
1738233856.465,-14.160,-65.918,-121.094,-11.719,74.707
1738233856.469,-41.016,-85.449,-116.211,-8.301,509.766
1738233856.472,-40.527,-82.031,-108.887,-18.066,430.176
1738233856.476,-0.488,-58.105,-95.703,-24.414,-70.312
1738233856.480,4.395,-64.453,-96.191,-13.672,-103.516
1738233856.484,-0.977,-70.801,-96.191,-21.973,12.207
1738233856.488,-21.484,-76.172,-97.656,-45.898,-145.508
1738233856.491,-51.758,-77.148,-97.656,-46.875,-295.898
1738233856.495,-18.555,-66.895,-86.914,-37.598,-138.672
1738233856.499,17.578,-63.477,-86.426,-33.203,135.742
1738233856.503,0.000,-64.941,-86.914,-36.133,-100.098
1738233856.507,-44.922,-78.125,-84.473,-24.902,-284.668
1738233856.511,-60.547,-83.008,-85.938,-29.785,-100.098
1738233856.515,-21.484,-70.801,-78.613,-35.156,36.133
1738233856.518,-0.488,-65.918,-70.312,-22.461,-30.762
1738233856.522,-11.230,-62.012,-66.895,-22.461,-185.547
1738233856.526,-25.391,-76.660,-65.918,-25.391,11.719
1738233856.530,-48.828,-78.613,-62.500,-32.715,193.848
1738233856.534,-16.113,-47.363,-55.176,-29.785,-208.984
1738233856.550,7.324,-48.828,-48.340,-15.137,-258.789
1738233856.554,-6.348,-64.941,-48.340,-1.465,17.090
1738233856.558,-24.414,-63.477,-52.734,2.930,-57.617
1738233856.562,-62.012,-65.918,-48.340,-21.484,-277.344
1738233856.566,-42.480,-62.988,-45.898,-41.016,-257.812
1738233856.570,-7.812,-64.941,-48.340,-24.902,394.043
1738233856.574,-11.230,-50.781,-49.316,-26.855,382.324
1738233856.577,-5.859,-45.410,-49.805,-37.598,-157.715
1738233856.581,-47.852,-77.148,-46.387,-37.598,-72.266
1738233856.585,-58.594,-86.426,-43.457,-28.809,375.000
1738233856.589,-20.020,-54.688,-42.969,-23.438,189.453
1738233856.593,-12.207,-41.992,-38.574,-30.273,-293.945
1738233856.595,-29.785,-60.547,-37.598,-28.320,-224.121
1738233856.599,-57.617,-71.777,-43.457,-43.457,-78.125
1738233856.603,-50.293,-59.082,-45.410,-54.199,-210.938
1738233856.607,-17.090,-49.316,-48.340,-51.758,-295.898
1738233856.611,-14.648,-51.758,-47.363,-36.621,-124.023
1738233856.615,-35.156,-53.223,-45.898,-21.484,96.191
1738233856.619,-60.547,-56.152,-47.363,-25.879,18.066
1738233856.622,-52.734,-43.945,-49.805,-40.039,-243.164
1738233856.626,-16.113,-41.992,-53.711,-41.016,-42.480
1738233856.630,-7.812,-46.875,-48.828,-23.438,299.316
1738233856.634,-22.949,-41.016,-42.969,-7.324,-1.465
1738233856.638,-55.176,-52.734,-42.969,4.395,-107.910
1738233856.655,-68.359,-59.570,-41.016,-1.465,59.570
1738233856.659,-35.645,-46.875,-43.457,-28.809,-42.969
1738233856.663,10.254,-37.109,-48.828,-20.020,-168.457
1738233856.667,13.672,-46.387,-49.805,-3.906,-86.426
1738233856.671,-45.410,-66.406,-44.434,-31.250,-54.688
1738233856.675,-74.707,-76.660,-45.410,-38.086,-29.297
1738233856.679,-48.828,-69.336,-48.828,-41.992,-69.336
1738233856.682,-21.973,-64.453,-48.340,-39.551,-70.801
1738233856.686,-14.648,-77.637,-42.480,-11.719,516.602
1738233856.690,-38.574,-78.125,-44.434,-15.625,555.664
1738233856.694,-55.664,-74.219,-54.688,-34.668,-176.270
1738233856.698,-25.391,-69.824,-57.129,-31.250,-314.453
1738233856.685,-0.488,-71.777,-53.711,-20.508,-182.129
1738233856.689,-5.859,-84.473,-51.270,-20.508,-122.559
1738233856.693,-22.461,-80.078,-48.828,-26.367,-189.453
1738233856.697,-46.387,-81.543,-55.664,-27.832,-182.617
1738233856.701,-31.738,-68.359,-62.500,-31.738,-71.777
1738233856.705,-6.348,-51.758,-58.105,-25.879,-90.332
1738233856.709,-4.395,-45.898,-54.199,-15.137,-46.387
1738233856.712,-2.441,-54.688,-56.641,-5.859,30.762
1738233856.716,-34.668,-71.777,-65.430,-12.695,-23.926
1738233856.720,-41.016,-62.500,-65.430,-9.766,-231.445
1738233856.724,1.953,-48.828,-65.430,-13.184,-255.371
1738233856.728,8.301,-51.758,-67.383,-32.715,54.688
1738233856.745,-10.742,-57.617,-74.707,-32.715,88.867
1738233856.749,-28.320,-67.871,-81.055,-26.367,-143.066
1738233856.753,-30.273,-65.918,-75.684,-20.996,-204.590
1738233856.757,-5.371,-64.941,-68.848,-21.973,240.723
1738233856.761,6.348,-65.430,-64.453,-16.602,376.465
1738233856.765,-4.883,-62.988,-63.965,-7.812,26.367
1738233856.769,-29.785,-63.965,-58.594,-8.301,6.348
1738233856.772,-46.875,-68.359,-51.758,-15.625,418.945
1738233856.776,-26.367,-45.898,-59.082,-28.809,538.086
1738233856.780,-9.277,-32.715,-62.500,-25.879,-78.613
1738233856.784,-9.277,-47.363,-54.199,-31.738,-196.777
1738233856.788,-29.785,-51.270,-48.828,-29.297,3.418
1738233856.790,-61.035,-46.387,-45.898,-24.902,-208.496
1738233856.794,-37.598,-35.156,-37.598,-18.555,-349.121
1738233856.798,-12.207,-33.203,-33.203,-20.996,-225.098
1738233856.802,-15.625,-35.645,-37.109,-36.133,-125.000
1738233856.806,-19.043,-42.969,-36.621,-41.992,-152.344
1738233856.810,-31.250,-58.594,-37.598,-35.156,-139.160
1738233856.814,-27.344,-56.152,-36.133,-27.344,115.234
1738233856.817,-19.043,-53.223,-34.180,-29.297,188.477
1738233856.821,-24.902,-56.152,-31.738,-25.391,-29.297
1738233856.825,-41.992,-61.035,-28.320,-18.066,-180.176
1738233856.829,-51.270,-72.754,-25.879,-28.320,77.637
1738233856.833,-27.832,-60.059,-27.832,-41.504,485.352
1738233856.820,-12.695,-37.598,-27.344,-49.316,32.227
1738233856.824,-9.277,-37.109,-24.414,-44.434,-230.957
1738233856.828,-18.066,-43.457,-27.344,-29.297,-40.527
1738233856.832,-55.176,-52.246,-32.715,-19.531,-141.113
1738233856.836,-41.992,-49.316,-26.855,-17.578,-273.438
1738233856.840,-6.348,-43.945,-16.113,-5.371,37.109
1738233856.844,5.371,-38.574,-19.043,-16.602,365.723
1738233856.847,-10.254,-36.621,-21.973,-48.340,43.457
1738233856.851,-40.039,-51.270,-20.508,-34.668,-135.254
1738233856.855,-45.410,-48.340,-24.414,-19.531,47.852
1738233856.859,-27.832,-41.992,-25.879,-12.695,469.238
1738233856.863,-14.648,-39.062,-26.855,-18.066,665.039
1738233856.865,-16.602,-32.715,-29.785,-24.414,62.500
1738233856.869,-35.156,-43.457,-24.902,-29.785,-187.988
1738233856.873,-40.039,-41.016,-18.066,-35.645,-130.859
1738233856.877,-12.695,-29.297,-22.949,-35.645,-257.812
1738233856.881,-7.812,-32.227,-23.438,-22.949,-237.305
1738233856.885,-13.184,-39.551,-16.113,-8.789,65.918
1738233856.889,-30.273,-42.480,-19.531,-16.113,150.879
1738233856.892,-34.668,-41.016,-24.902,-34.180,-100.098
1738233856.896,3.418,-32.227,-19.043,-31.250,-246.582
1738233856.900,8.301,-30.273,-19.043,-16.602,-61.035
1738233856.904,-5.371,-32.715,-18.555,-18.066,104.980
1738233856.908,-21.484,-33.203,-14.648,-28.809,-23.438
1738233856.916,-53.711,-38.086,-15.625,-16.113,-137.695
1738233856.920,-37.109,-35.645,-17.578,-12.207,46.875
1738233856.924,-6.348,-19.531,-13.672,-38.574,-16.113
1738233856.928,-6.836,-17.090,-13.184,-39.062,-264.648
1738233856.932,-11.719,-32.715,-18.066,-11.719,-141.602
1738233856.936,-38.086,-44.434,-15.625,-12.207,146.484
1738233856.940,-42.969,-30.762,-15.137,-30.762,45.898
1738233856.943,-11.230,-21.484,-23.926,-38.574,-109.863
1738233856.947,0.000,-27.344,-29.785,-36.621,24.902
1738233856.951,-5.371,-31.738,-21.973,-13.184,110.840
1738233856.955,-28.320,-37.109,-16.602,-0.977,-55.664
1738233856.959,-37.109,-28.320,-13.672,-17.090,-190.430
1738233856.970,0.488,-20.020,-3.418,-25.879,-156.738
1738233856.974,12.207,-26.367,2.441,-16.602,-18.066
1738233856.978,-10.254,-26.855,1.465,-20.996,-53.223
1738233856.982,-28.809,-32.715,-4.883,-26.855,-139.160
1738233856.986,-31.250,-37.109,-7.324,-18.066,-52.246
1738233856.990,-8.789,-38.086,-6.348,-9.277,565.430
1738233856.994,-8.301,-34.668,-6.348,-6.348,811.523
1738233856.997,-24.414,-24.414,-14.160,-43.945,205.566
1738233857.001,-45.410,-35.645,-17.090,-57.617,-117.188
1738233857.005,-46.875,-41.992,-13.672,-46.387,-109.375
1738233857.009,-26.855,-34.668,-16.602,-42.480,-265.625
1738233857.013,-5.371,-34.668,-22.461,-33.691,-275.391
1738233857.015,-14.160,-41.016,-22.949,-41.016,-144.531
1738233857.019,-41.504,-49.316,-22.949,-39.062,-122.070
1738233857.023,-49.316,-49.805,-23.438,-41.504,-183.594
1738233857.027,-43.945,-45.410,-27.832,-58.594,-188.477
1738233857.031,-28.320,-45.898,-28.809,-33.203,81.543
1738233857.035,-30.273,-49.316,-27.344,-32.715,103.516
1738233857.039,-44.922,-60.059,-31.250,-47.363,0.000
1738233857.042,-52.734,-58.594,-33.203,-39.551,-46.387
1738233857.046,-40.527,-58.594,-27.344,-41.504,386.230
1738233857.050,-23.438,-63.965,-30.762,-38.574,532.227
1738233857.054,-19.043,-52.246,-33.691,-32.227,-91.309
1738233857.058,-21.973,-52.734,-27.832,-27.344,-265.137
1738233857.060,-41.016,-59.082,-26.367,-18.066,-125.977
1738233857.064,-41.016,-53.223,-26.855,-33.691,-242.676
1738233857.068,-15.137,-55.176,-31.738,-33.203,-233.398
1738233857.072,-17.578,-61.035,-31.738,-30.273,-148.438
1738233857.076,-25.879,-62.500,-26.367,-45.410,-173.828
1738233857.080,-48.828,-70.312,-30.273,-50.293,-43.945
1738233857.084,-55.664,-72.266,-36.133,-59.570,-55.176
1738233857.087,-25.879,-75.195,-34.668,-38.574,109.375
1738233857.091,-17.578,-68.848,-35.156,-14.160,462.402
1738233857.095,-28.320,-51.270,-40.039,-43.945,3.906
1738233857.099,-40.527,-63.477,-45.410,-48.828,-264.160
1738233857.103,-45.898,-74.707,-44.922,-34.180,-22.949
1738233857.120,-32.715,-59.570,-47.852,-35.645,-125.488
1738233857.124,-7.812,-56.641,-45.898,-25.391,-323.730
1738233857.128,-6.348,-71.777,-43.457,-20.020,-281.250
1738233857.132,-37.598,-78.125,-47.363,-20.996,-106.934
1738233857.136,-53.223,-75.684,-48.340,-26.855,-136.719
1738233857.140,-35.156,-69.336,-48.828,-27.344,-256.836
1738233857.144,-27.832,-68.359,-47.852,-24.902,-62.988
1738233857.147,-35.645,-81.055,-54.199,-18.066,430.176
1738233857.151,-42.969,-83.496,-61.523,-7.812,392.578
1738233857.155,-58.105,-79.102,-64.941,-20.996,-10.254
1738233857.159,-38.574,-77.148,-63.477,-43.457,-180.176
1738233857.163,-10.254,-76.172,-58.594,-36.133,122.559
1738233857.150,-12.695,-62.988,-58.594,-34.668,-74.219
1738233857.154,-32.715,-64.941,-60.059,-22.949,-325.684
1738233857.158,-49.805,-79.590,-64.453,-2.441,-153.320
1738233857.162,-36.621,-68.848,-66.406,-18.555,-165.527
1738233857.166,-24.902,-62.988,-67.383,-27.832,-295.898
1738233857.170,-26.367,-71.289,-62.988,-5.371,-259.766
1738233857.174,-30.273,-74.219,-61.523,-3.906,27.344
1738233857.177,-44.922,-70.312,-70.801,-26.855,72.754
1738233857.181,-33.203,-67.871,-76.660,-59.082,-201.172
1738233857.185,-18.066,-72.266,-70.801,-51.270,-382.812
1738233857.189,-23.438,-76.172,-64.453,-31.250,-65.430
1738233857.193,-32.227,-84.961,-68.848,-31.250,378.906
1738233857.225,-45.898,-90.820,-67.871,-14.160,54.199
1738233857.229,-46.875,-80.566,-62.012,-14.160,-176.270
1738233857.233,-35.645,-80.078,-65.430,-55.176,31.738
1738233857.237,-25.391,-80.566,-66.895,-88.867,-44.434
1738233857.241,-20.996,-80.566,-57.129,-67.383,-261.719
1738233857.245,-35.645,-90.820,-55.176,-26.367,32.227
1738233857.249,-46.387,-89.355,-60.547,-31.250,454.590
1738233857.252,-35.645,-67.871,-62.012,-55.664,162.598
1738233857.256,-17.578,-59.082,-66.406,-48.828,-150.879
1738233857.260,-20.996,-65.430,-68.848,-37.109,-134.766
1738233857.264,-37.109,-80.566,-65.430,-4.395,170.898
1738233857.268,-46.875,-72.266,-63.477,19.531,2.930
1738233857.241,-40.039,-56.641,-62.012,6.836,-350.586
1738233857.245,-21.484,-60.547,-57.617,-37.109,-210.938
1738233857.249,-14.160,-60.547,-57.129,-58.594,-78.125
1738233857.253,-24.902,-60.059,-59.570,-38.574,-106.934
1738233857.257,-34.180,-63.477,-58.594,-26.855,-120.117
1738233857.261,-25.879,-60.059,-56.152,-12.695,-32.227
1738233857.265,-20.020,-53.711,-50.781,-3.906,150.391
1738233857.268,-22.461,-45.410,-49.316,4.395,-125.488
1738233857.272,-25.391,-51.270,-48.340,20.020,-145.508
1738233857.276,-32.715,-63.965,-49.805,16.602,125.977
1738233857.280,-28.320,-50.293,-53.223,5.371,-44.922
1738233857.284,-19.531,-41.016,-54.688,6.348,-264.160
1738233857.300,9.766,-42.480,-67.871,25.879,-265.625
1738233857.304,30.273,-63.965,-70.312,42.969,95.215
1738233857.308,-21.484,-70.801,-64.941,31.738,337.402
1738233857.312,-49.316,-59.570,-57.129,-12.695,-93.262
1738233857.316,-34.668,-59.082,-57.617,-29.297,-127.930
1738233857.320,-31.738,-67.871,-50.293,-70.312,318.848
1738233857.324,-44.922,-89.844,-21.484,-122.559,224.121
1738233857.327,-69.336,-114.258,-13.184,-68.848,-83.984
1738233857.331,-75.195,-134.766,8.301,12.207,-3.418
1738233857.335,-42.969,-157.715,20.996,-0.977,294.922
1738233857.339,-51.270,-177.734,7.324,-52.734,89.844
1738233857.343,-62.012,-195.801,2.930,-50.293,-293.457
1738233857.345,-76.172,-209.473,17.090,-27.344,-100.586
1738233857.349,-93.750,-194.336,18.066,-3.418,47.852
1738233857.353,-70.312,-178.223,9.277,15.625,-217.285
1738233857.357,-63.965,-175.293,9.277,52.246,-313.477
1738233857.361,-48.340,-168.457,17.578,35.645,-173.340
1738233857.365,-42.480,-165.527,10.254,-39.551,34.668
1738233857.369,-60.059,-143.066,-1.465,-33.691,100.586
1738233857.372,-55.176,-123.535,20.020,-2.930,-54.199
1738233857.376,-47.363,-110.840,11.719,-46.875,-21.973
1738233857.380,-41.992,-96.680,17.578,-58.594,365.234
1738233857.384,-56.641,-90.332,30.273,16.113,22.949
1738233857.388,-83.496,-76.660,22.949,49.805,-254.883
1738233857.405,-81.055,-85.449,21.484,-6.836,-165.527
1738233857.409,-43.457,-83.496,7.324,-53.223,-270.508
1738233857.413,-20.020,-65.430,1.953,-67.871,-321.777
1738233857.417,-24.902,-66.406,12.207,-24.414,-214.844
1738233857.435,39.062,-15.625,-101.074,-50.293,-196.777
1738233857.439,11.719,-7.324,-105.957,-38.086,-307.617
1738233857.443,-25.391,-16.602,-121.582,-20.996,-290.527
1738233857.447,-42.480,-11.230,-121.094,-24.414,-273.438
1738233857.451,9.277,47.363,-91.309,24.902,-328.125
1738233857.455,7.324,52.246,-75.684,67.383,-159.668
1738233857.459,-4.883,34.180,-74.219,83.984,-29.297
1738233857.462,-43.945,-4.883,-125.000,19.043,-45.410
1738233857.466,-54.688,-3.906,-147.461,-38.086,-87.891
1738233857.470,-13.184,23.926,-128.418,-16.602,-272.949
1738233857.474,1.465,14.648,-104.980,15.137,-404.785
1738233857.478,-8.301,-2.441,-110.352,3.418,33.691
1738233857.481,-49.805,5.859,-127.930,-30.273,633.301
1738233857.485,-40.039,41.992,-121.582,-3.906,9.766
1738233857.489,19.043,58.105,-111.816,27.832,-310.547
1738233857.493,34.668,57.617,-116.211,-6.348,-105.957
1738233857.497,23.926,51.270,-124.023,-35.156,-212.402
1738233857.501,-27.344,41.504,-114.258,5.859,-150.391
1738233857.505,-42.969,40.039,-104.004,-21.973,20.996
1738233857.508,20.996,46.387,-102.051,-60.547,296.875
1738233857.512,29.297,64.453,-94.727,-2.930,232.422
1738233857.516,5.371,66.406,-96.191,14.648,-265.625
1738233857.520,-23.438,46.387,-104.980,15.625,-266.602
1738233857.524,-47.363,45.898,-107.422,-0.488,1.465
1738233857.526,3.418,60.059,-101.074,-36.133,-247.559
1738233857.530,42.969,56.152,-92.285,-15.625,-406.250
1738233857.534,32.227,48.340,-76.172,-36.133,-143.555
1738233857.538,-16.602,48.828,-61.523,-76.172,-101.074
1738233857.542,-71.777,45.898,-59.570,-62.500,-186.523
1738233857.546,-29.297,52.246,-57.617,-68.848,-187.012
1738233857.550,19.043,54.199,-52.246,-53.223,-23.926
1738233857.553,14.160,42.480,-42.480,-11.230,448.730
1738233857.557,-20.996,44.434,-29.297,-5.371,92.773
1738233857.561,-78.125,39.551,-16.602,-5.859,-283.203
1738233857.565,-56.152,38.086,-2.441,-8.789,-122.559
1738233857.569,-0.977,39.062,4.883,-16.602,-205.078
1738233857.570,6.836,31.738,3.906,-46.387,-302.246
1738233857.574,-16.602,23.926,5.859,-49.316,-256.836
1738233857.578,-75.195,12.207,11.230,-22.949,-109.375
1738233857.582,-51.270,15.625,12.207,-46.875,-180.664
1738233857.586,27.344,22.949,8.301,-59.570,-227.051
1738233857.590,28.809,14.648,11.230,-24.902,-105.957
1738233857.594,-1.953,4.883,7.812,-21.484,290.527
1738233857.597,-66.406,0.977,0.977,-5.859,354.492
1738233857.601,-66.406,14.160,5.859,22.461,-61.035
1738233857.605,21.973,27.832,9.766,-15.137,-169.434
1738233857.609,51.758,15.625,11.719,-15.625,183.594
1738233857.613,20.020,18.066,9.277,-16.113,-9.277
1738233857.630,-48.828,13.672,14.160,-3.906,-289.062
1738233857.634,-59.082,7.812,20.020,9.277,-157.715
1738233857.638,17.578,22.461,19.043,-42.969,-189.941
1738233857.642,46.875,21.973,20.996,-47.363,-223.633
1738233857.646,27.832,13.184,27.832,-24.414,-243.652
1738233857.650,-12.207,-4.883,32.715,-7.812,132.324
1738233857.654,-26.855,-15.625,33.691,31.738,435.059
1738233857.657,33.691,7.812,36.621,43.457,17.090
1738233857.661,38.574,26.367,36.621,-25.391,-264.648
1738233857.665,9.277,9.766,38.086,-39.551,-39.062
1738233857.669,-29.297,9.277,31.250,-20.508,128.906
1738233857.673,-81.055,16.113,30.762,-63.477,-151.367
1738233857.662,-36.133,18.555,43.945,-93.750,-255.371
1738233857.666,-10.742,18.066,42.969,-104.492,-147.949
1738233857.670,-27.344,17.578,37.109,-46.875,-162.598
1738233857.674,-58.594,20.508,37.598,-50.781,-259.766
1738233857.678,-110.352,4.883,31.738,-105.469,-185.547
1738233857.682,-65.918,-0.488,25.879,-81.055,96.191
1738233857.686,0.000,9.766,26.367,-71.289,36.133
1738233857.689,-0.977,3.906,17.090,-95.215,-198.242
1738233857.693,-37.598,-20.020,2.441,-79.590,-41.504
1738233857.697,-98.145,-32.227,-1.465,-59.082,449.219
1738233857.701,-78.125,-17.090,-6.836,-65.430,139.648
1738233857.705,-20.508,-13.672,-17.578,-75.195,-404.785
1738233857.720,-15.625,-24.414,-18.066,-84.473,-243.164
1738233857.724,-14.160,-34.180,-19.043,-89.844,218.262
1738233857.728,-73.730,-38.086,-18.555,-75.684,-6.836
1738233857.732,-87.891,-31.738,-18.066,-65.918,-404.297
1738233857.736,-26.855,-26.367,-15.625,-59.570,-275.879
1738233857.740,-9.766,-40.039,-18.555,-55.176,258.301
1738233857.744,-24.902,-39.551,-29.297,-69.824,82.031
1738233857.747,-78.613,-40.527,-37.109,-76.660,-310.547
1738233857.751,-74.707,-49.316,-41.504,-86.914,-192.871
1738233857.755,-14.160,-37.598,-39.062,-78.613,-166.504
1738233857.759,-10.742,-32.715,-38.086,-41.016,-352.539
1738233857.763,-36.133,-45.410,-43.945,-40.527,-378.418
1738233857.765,-80.566,-60.547,-46.387,-64.453,28.320
1738233857.769,-99.609,-52.734,-45.410,-70.801,18.555
1738233857.773,-41.992,-36.621,-49.316,-62.500,-401.855
1738233857.777,-8.301,-41.504,-49.316,-25.391,-418.457
1738233857.781,-17.578,-53.223,-45.898,-1.465,-54.199
1738233857.785,-58.105,-53.223,-47.852,-34.180,25.391
1738233857.789,-84.473,-48.340,-45.898,-44.434,-174.805
1738233857.792,-30.273,-34.668,-46.387,-52.734,-311.035
1738233857.796,15.625,-39.551,-49.805,-85.938,182.617
1738233857.800,-1.465,-40.039,-53.711,-100.098,356.934
1738233857.804,-42.480,-40.039,-55.664,-86.914,-293.457
1738233857.808,-95.703,-61.523,-64.941,-82.520,-328.613
1738233857.811,-58.594,-49.805,-70.801,-72.754,-265.137
1738233857.815,-9.277,-35.156,-64.941,-43.457,-354.980
1738233857.819,-10.742,-40.039,-63.965,-43.457,-266.113
1738233857.823,-34.180,-42.969,-63.477,-44.434,-159.180
1738233857.827,-100.098,-51.270,-64.453,-46.875,-80.078
1738233857.831,-93.262,-53.223,-70.801,-65.918,-38.086
1738233857.835,-27.832,-40.527,-66.895,-64.941,-192.383
1738233857.838,-14.648,-40.527,-60.547,-45.898,-99.609
1738233857.842,-39.551,-48.340,-62.500,-38.086,207.031
1738233857.846,-94.727,-46.875,-65.430,-45.410,-127.441
1738233857.850,-78.613,-51.270,-57.129,-41.016,-339.355
1738233857.854,-0.977,-51.758,-56.641,-2.441,-244.629
1738233857.855,4.883,-40.039,-65.430,25.879,-259.277
1738233857.859,-45.410,-39.062,-69.824,-43.945,-304.688
1738233857.863,-104.004,-45.898,-70.312,-97.656,-196.289
1738233857.867,-89.355,-31.738,-68.848,-101.074,-80.078
1738233857.871,-51.758,-16.602,-72.754,-115.234,-188.477
1738233857.875,-46.387,-23.926,-87.402,-100.586,-126.953
1738233857.879,-70.312,-21.484,-97.168,-113.281,-91.309
1738233857.882,-107.422,-32.227,-90.820,-102.539,444.824
1738233857.886,-119.629,-31.250,-88.867,-105.957,848.633
1738233857.890,-96.191,-10.254,-96.191,-153.320,38.086
1738233857.894,-51.758,-13.672,-96.191,-107.422,-286.621
1738233857.898,-55.664,-17.578,-86.426,-79.102,-105.469
1738233857.900,-90.820,-23.926,-82.520,-85.938,-200.195
1738233857.904,-122.070,-32.227,-84.473,-69.824,-198.730
1738233857.908,-72.266,-28.320,-69.824,-47.363,-105.469
1738233857.912,-16.602,-28.809,-62.012,-41.016,-128.906
1738233857.916,-17.090,-29.297,-64.941,-46.875,-179.688
1738233857.920,-49.805,-30.273,-62.500,-55.664,-110.352
1738233857.924,-74.707,-49.805,-55.176,-61.035,152.832
1738233857.927,-46.875,-49.316,-48.340,-72.754,601.074
1738233857.931,-26.855,-24.902,-46.875,-76.172,170.898
1738233857.935,-25.391,-25.879,-41.504,-56.641,-221.680
1738233857.939,-48.828,-38.086,-39.062,-61.035,-42.969
1738233857.943,-96.191,-43.945,-40.039,-59.082,-25.879
1738233857.945,-66.895,-34.180,-35.156,-50.293,-146.484
1738233857.949,12.695,-28.809,-33.691,-32.227,-167.480
1738233857.953,19.531,-26.855,-40.039,-19.043,9.766
1738233857.957,-7.812,-25.391,-46.875,-34.180,-5.859
1738233857.961,-55.664,-36.621,-53.711,-19.043,-76.660
1738233857.965,-48.828,-38.574,-42.480,-0.977,122.559
1738233857.969,14.160,-35.645,-30.273,-9.277,458.008
1738233857.972,0.488,-31.738,-36.133,-37.598,362.793
1738233857.976,8.789,-26.367,-37.109,-62.012,18.066
1738233857.980,-11.230,-36.621,-30.273,-24.414,-3.418
1738233857.984,-42.480,-45.898,-31.250,3.906,416.504
1738233857.988,-17.578,-31.250,-36.133,-31.738,181.152
1738233857.990,21.973,-25.879,-29.785,-41.016,-240.234
1738233857.994,34.180,-30.273,-22.949,-15.625,-197.266
1738233857.998,-15.625,-40.527,-22.949,-18.555,-130.859
1738233858.002,-37.109,-41.504,-21.484,-30.762,-124.512
1738233858.006,14.160,-27.832,-16.113,-33.203,-177.246
1738233858.010,41.992,-28.320,-11.719,-28.809,7.324
1738233858.014,22.949,-36.621,-14.648,-12.695,176.270
1738233858.017,-8.789,-42.969,-12.695,17.090,-13.184
1738233858.021,-32.715,-44.434,-10.254,18.555,-122.559
1738233858.025,16.113,-39.062,-10.742,7.324,63.477
1738233858.029,50.781,-31.250,-12.207,3.906,73.242
1738233858.033,16.602,-38.086,-10.254,4.883,-194.336
1738233858.050,6.348,-59.082,-4.883,36.133,-45.898
1738233858.054,-31.250,-64.453,-7.812,6.348,233.887
1738233858.058,-32.715,-44.922,-16.113,-69.824,61.035
1738233858.062,13.672,-34.180,-23.926,-77.148,-171.387
1738233858.066,-10.254,-48.340,-17.578,-39.062,-135.254
1738233858.070,-31.738,-52.734,-14.648,-20.508,173.340
1738233858.074,-75.195,-46.875,-19.043,-44.434,172.852
1738233858.077,-55.664,-41.016,-19.531,-47.852,-65.918
1738233858.081,6.836,-39.551,-14.648,-20.508,40.039
1738233858.085,-3.418,-38.574,-8.789,-34.180,123.535
1738233858.089,-32.227,-40.039,-4.395,-28.809,-66.895
1738233858.093,-56.641,-47.363,-10.254,-17.578,-113.770
1738233858.095,-34.668,-54.199,-17.090,-32.227,-20.508
1738233858.099,13.672,-56.152,-16.113,-8.789,386.230
1738233858.103,11.230,-41.504,-16.602,15.625,343.750
1738233858.107,-6.836,-40.039,-17.578,-15.137,-20.020
1738233858.111,-40.039,-53.223,-18.555,-41.504,-50.781
1738233858.115,-46.387,-49.805,-23.438,-31.250,166.992
1738233858.119,1.953,-33.691,-25.879,-34.668,101.562
1738233858.122,19.043,-29.785,-26.367,-29.297,-160.645
1738233858.126,-2.441,-37.598,-27.344,-12.207,7.812
1738233858.130,-43.457,-37.109,-28.809,-8.301,210.938
1738233858.134,-61.035,-33.691,-27.344,-0.488,-71.777
1738233858.138,-5.859,-21.973,-27.832,-5.371,-259.766
1738233858.140,22.949,-18.066,-31.738,-14.648,15.625
1738233858.144,17.578,-16.602,-31.738,-29.785,127.930
1738233858.148,-26.367,-23.926,-32.227,-29.297,-169.922
1738233858.152,-58.594,-38.574,-34.180,-20.508,-136.719
1738233858.156,-25.879,-35.156,-32.715,-29.297,-50.293
1738233858.160,7.324,-30.762,-31.738,-36.621,13.184
1738233858.164,3.906,-27.832,-29.297,-23.926,32.227
1738233858.167,-28.320,-32.715,-30.273,-9.277,-44.434
1738233858.171,-61.035,-54.688,-28.809,3.906,442.871
1738233858.175,-32.227,-45.898,-28.809,0.000,748.047
1738233858.179,2.930,-28.809,-29.785,-7.324,83.496
1738233858.183,1.953,-33.691,-24.902,-27.832,-202.637
1738233858.186,-26.855,-44.434,-26.855,-39.062,-37.109
1738233858.190,-67.383,-47.852,-27.832,-26.367,-144.043
1738233858.194,-48.828,-42.480,-28.809,-36.133,-189.941
1738233858.198,-1.953,-39.062,-28.809,-39.062,-150.391
1738233858.202,4.883,-38.574,-29.785,-40.039,-164.062
1738233858.206,-24.414,-48.340,-30.762,-21.484,-61.035
1738233858.210,-69.336,-60.547,-32.227,-24.414,18.555
1738233858.213,-58.105,-59.570,-31.738,-52.734,154.297
1738233858.217,-2.441,-46.875,-33.203,-51.270,537.109
1738233858.221,-3.418,-36.133,-32.715,-41.992,83.496
1738233858.225,-20.996,-39.062,-31.250,-37.598,-322.266
1738233858.229,-61.523,-51.758,-31.250,-25.391,-130.859
1738233858.230,-66.406,-51.758,-30.273,-27.344,-148.926
1738233858.234,-8.789,-44.434,-27.832,-29.785,-286.133
1738233858.238,0.000,-42.480,-27.344,-20.508,-216.309
1738233858.242,-11.230,-45.410,-30.762,-30.762,-66.895
1738233858.246,-53.711,-46.875,-32.227,-25.391,-94.238
1738233858.250,-76.172,-47.852,-35.156,-22.949,-80.078
1738233858.254,-29.785,-43.457,-38.086,-37.598,-54.199
1738233858.257,-22.461,-45.898,-36.621,-29.785,343.750
1738233858.261,-29.785,-40.039,-31.250,-34.668,616.211
1738233858.265,-52.734,-37.109,-28.809,-39.551,-24.414
1738233858.269,-53.711,-52.246,-28.320,-20.020,-125.000
1738233858.273,8.301,-30.273,-28.320,-21.973,97.168
1738233858.275,1.953,-11.230,-34.668,-38.574,-172.363
1738233858.279,-33.203,-19.531,-46.387,-51.270,-289.062
1738233858.283,-62.012,-25.879,-54.199,-41.992,-186.035
1738233858.287,-76.660,-13.672,-57.129,-33.203,-84.961
1738233858.291,-37.598,13.672,-62.500,-66.895,-99.121
1738233858.295,-4.883,0.977,-65.430,-57.617,-94.727
1738233858.299,-8.301,-17.090,-69.824,-23.438,63.477
1738233858.302,-41.016,-30.762,-73.730,-20.020,408.691
1738233858.306,-47.363,-41.992,-75.195,-8.301,82.520
1738233858.310,-34.180,-30.273,-73.730,-42.480,-220.703
1738233858.314,2.441,-20.996,-75.684,-52.246,-117.676
1738233858.318,12.695,-8.301,-81.055,-16.602,-121.582
1738233858.322,-35.645,-11.719,-81.543,-13.184,-165.039
1738233858.326,-40.039,-30.762,-82.031,0.000,-74.219
1738233858.330,-12.695,-26.855,-84.473,-12.695,198.242
1738233858.334,40.527,-21.484,-97.168,-48.828,50.781
1738233858.338,52.734,-30.273,-104.980,-46.387,-235.352
1738233858.342,40.039,-43.945,-97.168,-1.953,-66.406
1738233858.346,20.508,-47.852,-97.656,31.250,235.352
1738233858.349,-12.695,-35.645,-104.492,-7.812,119.629
1738233858.353,47.852,-25.879,-103.027,-10.742,-33.691
1738233858.357,70.312,-18.555,-94.727,0.488,-48.828
1738233858.361,31.738,-21.973,-90.820,-4.395,-1.465
1738233858.365,16.113,-31.738,-91.309,29.785,-121.582
1738233858.365,1.953,-33.203,-83.984,27.344,-283.691
1738233858.369,20.508,-26.367,-80.078,-10.254,-270.996
1738233858.373,56.152,-23.438,-78.125,-33.203,287.598
1738233858.377,44.434,-6.348,-74.707,-9.277,270.020
1738233858.381,-0.488,-1.465,-69.336,4.395,-328.125
1738233858.385,-14.160,-23.926,-60.547,-13.672,-39.551
1738233858.389,19.531,-20.508,-52.734,-13.184,541.992
1738233858.392,32.715,12.207,-49.316,-10.254,-38.086
1738233858.396,28.809,7.324,-46.875,-9.277,-497.559
1738233858.400,14.160,-23.926,-46.875,-4.395,-318.359
1738233858.404,-12.695,-25.391,-45.410,-12.207,-340.820
1738233858.408,13.672,-3.906,-41.504,-24.414,-441.406
1738233858.425,25.879,-11.230,-40.527,-19.043,-444.336
1738233858.429,17.090,-23.926,-37.598,-1.465,-302.734
1738233858.433,-13.672,-29.785,-33.203,-10.254,-314.941
1738233858.437,-61.035,-42.969,-32.715,-31.250,-403.809
1738233858.470,-23.438,-59.082,-26.855,-43.457,-245.605
1738233858.474,-49.316,-80.078,-24.902,-16.602,253.418
1738233858.478,-52.246,-60.059,-26.855,-19.043,62.012
1738233858.482,-3.906,-33.691,-22.461,-26.855,-332.520
1738233858.486,12.695,-39.062,-10.254,-23.438,-207.520
1738233858.490,-0.488,-46.387,-8.789,-20.996,-2.930
1738233858.494,-31.250,-56.641,-12.695,-44.922,-39.062
1738233858.497,-49.316,-46.875,-15.137,-59.570,-280.273
1738233858.501,-19.043,-37.598,-11.230,-34.668,-101.562
1738233858.505,-3.418,-43.945,-7.324,-10.742,434.570
1738233858.509,-17.578,-24.902,-13.672,-20.020,92.773
1738233858.513,-30.273,-15.137,-14.648,-31.250,-259.766
1738233858.515,-37.109,-23.926,-11.719,-23.926,-128.418
1738233858.519,-28.809,-20.508,-3.418,-19.531,-161.133
1738233858.523,-21.484,-23.438,-2.441,-29.297,-174.805
1738233858.527,-23.438,-8.301,-8.789,-45.898,-105.957
1738233858.531,-44.434,0.977,-10.254,-38.574,-62.500
1738233858.535,-62.988,-5.371,-11.230,-26.367,-103.516
1738233858.539,-44.434,1.465,-8.789,-33.203,-68.359
1738233858.542,-24.902,-1.953,-8.301,-30.762,71.777
1738233858.546,-17.578,-13.672,-11.230,-23.926,666.504
1738233858.550,-34.668,1.465,-13.672,-33.691,641.602
1738233858.554,-64.453,7.324,-14.648,-53.223,-101.074
1738233858.558,-54.199,15.625,-12.207,-43.457,-202.148
1738233858.561,-17.578,19.043,-7.324,-7.812,-43.457
1738233858.565,4.883,0.977,-10.742,21.484,-121.094
1738233858.569,-24.902,7.812,-26.367,-14.648,-238.770
1738233858.573,-60.547,5.859,-29.297,-56.641,-195.312
1738233858.577,-40.527,11.230,-29.297,-41.992,-44.922
1738233858.581,-14.648,14.160,-29.297,-7.812,102.539
1738233858.585,-5.371,22.461,-26.367,-3.906,84.473
1738233858.588,-17.578,23.926,-24.902,-51.758,66.406
1738233858.592,-42.969,11.719,-25.391,-62.012,7.812
1738233858.596,-50.293,20.996,-28.320,-51.270,-265.625
1738233858.600,-35.645,20.508,-21.484,-46.387,-239.258
1738233858.604,-15.137,6.348,-12.695,-11.719,118.164
1738233858.606,-15.137,4.395,-15.137,-12.695,293.457
1738233858.610,-41.504,-7.812,-20.508,-58.105,-57.129
1738233858.614,-39.062,-14.648,-21.484,-59.570,-254.395
1738233858.618,-17.090,-11.719,-19.043,-24.414,24.902
1738233858.622,-22.461,-7.812,-11.719,-16.113,20.020
1738233858.626,-31.738,-5.859,-16.113,-26.367,-77.148
1738233858.630,-50.781,-20.508,-26.367,-43.457,25.879
1738233858.633,-48.828,-45.410,-27.344,-46.387,409.668
1738233858.637,-28.320,-41.504,-26.855,-36.133,720.703
1738233858.641,-18.066,-28.320,-25.391,-36.133,157.715
1738233858.645,-18.066,-38.086,-23.438,-26.367,-175.781
1738233858.649,-34.180,-41.504,-25.391,-40.039,-136.230
1738233858.650,-40.039,-23.926,-27.832,-51.270,-273.926
1738233858.654,-22.949,3.418,-26.855,-26.855,-283.691
1738233858.658,-22.461,7.324,-24.902,-13.184,-116.211
1738233858.662,-22.949,3.906,-27.344,-15.625,-8.789
1738233858.666,-24.902,-6.836,-29.785,-23.926,-98.145
1738233858.670,-42.969,-22.949,-29.297,-44.922,-199.707
1738233858.674,-26.855,-13.184,-25.879,-41.992,71.777
1738233858.677,-12.695,-12.207,-22.461,-7.812,583.008
1738233858.681,-23.926,-14.160,-28.320,-1.953,260.742
1738233858.685,-29.785,-24.902,-36.133,-33.691,-164.551
1738233858.689,-44.922,-39.551,-37.109,-54.688,-155.273
1738233858.693,-38.574,-14.160,-30.762,-46.387,-196.289
1738233858.695,-21.973,2.930,-27.832,-24.414,-194.336
1738233858.699,-26.855,1.465,-32.715,-22.949,-57.617
1738233858.703,-23.438,9.277,-35.156,-41.992,62.012
1738233858.707,-42.969,3.906,-26.855,-62.500,-158.691
1738233858.711,-42.480,10.254,-24.414,-53.223,-272.949
1738233858.715,-8.789,25.879,-25.391,-20.020,107.422
1738233858.719,-15.625,22.949,-25.391,-8.789,611.328
1738233858.722,-33.691,22.461,-30.273,-6.348,490.723
1738233858.726,-46.387,7.812,-36.133,-14.648,44.434
1738233858.730,-36.133,2.930,-36.133,-37.109,-136.719
1738233858.734,-18.066,10.742,-37.109,-32.715,232.422
1738233858.738,-26.367,4.883,-41.016,-23.926,190.430
1738233858.740,-29.297,-3.418,-42.480,-23.438,-123.535
1738233858.744,-26.855,-10.254,-40.527,-41.992,-158.203
1738233858.748,-31.250,-17.090,-35.645,-58.594,-166.992
1738233858.752,-17.578,-9.277,-29.297,-40.527,-130.859
1738233858.756,-3.418,-5.371,-27.344,-21.973,-96.680
1738233858.760,-5.371,-16.602,-27.832,-13.184,187.012
1738233858.764,-27.344,-29.297,-30.762,-21.484,284.180
1738233858.767,-43.945,-29.297,-31.738,-43.945,-154.297
1738233858.771,-24.902,-21.973,-27.344,-28.809,-153.320
1738233858.775,-18.555,-33.203,-26.855,-1.465,128.906
1738233858.779,-23.926,-40.527,-26.367,4.395,86.914
1738233858.783,-29.297,-49.805,-28.809,-11.719,-121.094
1738233858.800,-45.898,-63.965,-32.227,-38.574,-295.898
1738233858.804,-33.691,-53.223,-37.109,-65.918,13.184
1738233858.808,-19.043,-36.133,-40.527,-50.293,260.254
1738233858.812,-14.160,-34.180,-36.621,-18.066,-3.906
1738233858.816,-13.672,-41.992,-29.297,-7.324,-12.207
1738233858.820,-42.480,-39.062,-27.832,-30.273,103.516
1738233858.824,-44.434,-21.973,-26.855,-43.457,-65.918
1738233858.827,-23.926,-8.301,-23.438,-26.855,-36.133
1738233858.831,-25.879,-7.324,-24.414,-28.320,180.176
1738233858.835,-18.555,-24.414,-25.879,-23.438,529.785
1738233858.839,-28.809,-37.598,-26.855,-29.785,396.484
1738233858.843,-37.598,-33.203,-24.414,-39.062,-203.125
1738233858.876,-24.902,-31.738,-27.344,-19.043,-157.227
1738233858.880,-13.184,-25.391,-35.156,-3.418,168.945
1738233858.884,-12.207,-29.297,-38.574,-3.418,34.668
1738233858.888,-32.227,-56.641,-37.598,-15.625,-185.059
1738233858.892,-35.156,-53.223,-32.227,3.906,-186.035
1738233858.896,-19.043,-39.062,-34.668,14.160,57.617
1738233858.900,-8.301,-32.227,-34.668,-25.879,179.199
1738233858.903,-0.977,-27.832,-31.738,-56.641,-33.203
1738233858.907,-6.348,-64.453,-32.715,-47.363,22.949
1738233858.911,-29.785,-85.449,-33.203,-38.086,291.992
1738233858.915,-19.531,-63.965,-32.227,-10.254,2.441
1738233858.919,-3.418,-69.824,-29.297,20.020,-65.918
1738233858.920,-6.836,-78.613,-30.273,12.695,118.164
1738233858.924,-10.742,-68.848,-31.250,-22.461,39.551
1738233858.928,-29.297,-64.941,-28.809,-36.133,-215.332
1738233858.932,-23.926,-50.293,-24.414,-10.742,-207.520
1738233858.936,5.371,-44.434,-20.020,2.930,230.469
1738233858.940,-11.230,-48.340,-24.414,-9.766,324.707
1738233858.944,-32.227,-45.898,-30.273,-32.715,128.906
1738233858.947,-39.062,-32.715,-28.809,-35.156,60.547
1738233858.951,-41.016,-19.531,-28.320,-21.973,118.652
1738233858.955,-29.785,-24.414,-27.344,-13.672,20.996
1738233858.959,-14.648,-34.668,-32.227,-19.531,-57.129
1738233858.963,-15.625,-58.105,-34.668,-45.898,-17.578
1738233858.966,-34.668,-74.707,-21.973,-51.270,-25.879
1738233858.970,-26.855,-45.898,-20.508,-39.551,-167.969
1738233858.974,-15.137,-30.762,-24.902,-40.527,-163.086
1738233858.978,-18.066,-37.109,-23.438,-38.574,-7.324
1738233858.982,-19.531,-53.223,-24.414,-29.785,555.176
1738233858.986,-48.828,-66.406,-24.902,-45.898,548.828
1738233858.990,-53.223,-57.129,-28.809,-51.758,-30.273
1738233858.993,-23.926,-54.688,-34.180,-31.250,-62.012
1738233858.997,-25.879,-47.363,-35.156,-29.297,100.586
1738233859.001,-39.551,-24.414,-32.227,-43.457,-53.223
1738233859.005,-61.035,-26.367,-32.715,-57.129,-332.031
1738233859.009,-60.059,-49.316,-33.203,-58.105,-119.141
1738233859.012,-38.574,-51.758,-36.621,-40.527,283.691
1738233859.016,-38.574,-29.297,-43.457,-24.414,-42.969
1738233859.020,-42.969,-17.578,-41.016,-6.348,-212.891
1738233859.024,-51.758,-32.227,-39.062,-20.020,160.645
1738233859.028,-58.105,-22.949,-47.363,-50.781,203.125
1738233859.032,-32.715,-15.625,-46.875,-46.875,-72.266
1738233859.036,-17.090,-19.043,-41.992,-22.949,65.430
1738233859.039,-36.133,-15.625,-43.945,-20.996,319.824
1738233859.043,-52.734,-22.949,-47.852,-38.086,107.422
1738233859.047,-45.898,-32.715,-52.734,-55.664,-281.738
1738233859.051,-21.973,-27.832,-51.270,-40.039,-235.352
1738233859.055,-20.508,-33.203,-55.176,-21.973,82.520
1738233859.025,-28.809,-37.109,-60.547,-28.809,-54.688
1738233859.029,-41.016,-45.410,-55.664,-38.574,-256.348
1738233859.033,-58.105,-62.500,-54.688,-58.594,-211.426
1738233859.037,-41.016,-55.664,-56.641,-53.711,171.387
1738233859.041,-21.484,-38.086,-57.129,-39.062,113.281
1738233859.045,-20.508,-46.875,-55.664,-36.621,-27.344
1738233859.049,-29.297,-58.594,-52.734,-25.391,110.840
1738233859.052,-41.016,-64.941,-51.270,-22.461,411.621
1738233859.056,-31.738,-44.922,-47.852,-22.461,97.656
1738233859.060,-14.648,-34.668,-43.945,-6.348,-232.910
1738233859.064,-19.531,-51.758,-47.363,-14.648,-1.953
1738233859.068,-40.039,-63.965,-53.223,-32.715,-60.059
1738233859.085,-53.711,-74.219,-59.570,-41.992,-294.434
1738233859.089,-42.480,-62.988,-65.918,-49.805,-357.422
1738233859.093,-21.484,-48.340,-62.988,-24.902,37.109
1738233859.097,-18.555,-51.758,-60.059,0.000,645.020
1738233859.101,-33.691,-48.340,-64.453,-15.625,377.930
1738233859.105,-43.457,-61.035,-62.500,-32.715,-9.277
1738233859.109,-33.691,-61.035,-57.617,-23.438,301.270
1738233859.112,-21.484,-38.574,-50.293,-4.883,188.965
1738233859.116,-14.160,-36.621,-48.340,-7.324,-190.918
1738233859.120,-14.648,-41.504,-47.363,-5.859,-220.703
1738233859.124,-45.898,-58.594,-41.992,-9.766,-95.215
1738233859.128,-59.082,-58.105,-44.434,-32.227,-119.629
1738233859.116,-30.273,-30.273,-43.457,-44.922,-299.316
1738233859.120,-24.902,-35.645,-38.574,-38.574,-211.914
1738233859.124,-20.508,-48.828,-37.598,-27.344,365.234
1738233859.128,-29.785,-39.551,-37.109,-38.086,209.473
1738233859.132,-48.828,-35.645,-38.086,-43.945,-354.980
1738233859.136,-30.762,-32.715,-41.016,-47.852,-107.422
1738233859.140,-15.137,-26.367,-46.387,-38.574,183.105
1738233859.143,-20.020,-21.973,-45.898,-29.785,-70.801
1738233859.147,-47.852,-36.621,-42.480,-23.926,-309.570
1738233859.151,-59.570,-53.711,-42.480,-30.273,-131.348
1738233859.155,-39.062,-31.738,-38.086,-27.832,179.199
1738233859.159,-19.043,-13.184,-36.621,-5.859,-125.488
1738233859.176,-15.137,-17.578,-43.945,-13.672,-234.375
1738233859.180,-31.738,-31.250,-48.828,-34.668,117.676
1738233859.184,-47.852,-38.574,-49.805,-55.176,-4.395
1738233859.188,-42.480,-24.902,-50.293,-60.059,-294.434
1738233859.192,-25.879,-23.438,-56.152,-36.621,-273.926
1738233859.196,-24.902,-42.969,-51.758,-14.160,372.559
1738233859.200,-40.527,-41.016,-48.340,-29.297,595.215
1738233859.203,-47.363,-33.203,-52.246,-55.664,-90.332
1738233859.207,-31.250,-35.645,-45.410,-52.246,-120.117
1738233859.211,-14.160,-29.785,-39.551,-20.020,272.949
1738233859.215,-14.160,-23.438,-45.898,-11.719,75.195
1738233859.219,-14.648,-28.809,-48.340,-38.574,-250.000
1738233859.220,-20.996,-39.551,-45.410,-60.059,-234.863
1738233859.224,-28.809,-32.715,-38.574,-36.133,-279.297
1738233859.228,-14.160,-18.066,-33.691,-17.090,-285.645
1738233859.232,-7.324,-17.090,-35.645,-6.836,-278.320
1738233859.236,-8.301,-29.297,-32.715,-4.883,-57.129
1738233859.240,-28.809,-40.039,-33.203,-24.414,288.086
1738233859.244,-45.410,-33.691,-40.527,-25.879,19.531
1738233859.247,-33.203,-19.043,-39.062,-13.184,-350.098
1738233859.251,-22.949,-23.926,-37.598,-10.254,-127.930
1738233859.255,-13.184,-36.133,-39.062,-31.250,466.797
1738233859.259,-26.855,-33.691,-43.945,-49.805,123.047
1738233859.263,-40.527,-34.668,-44.922,-45.898,-283.203
1738233859.265,-33.691,-30.273,-38.086,-20.508,-164.062
1738233859.269,-31.250,-22.949,-40.039,-12.695,-146.973
1738233859.273,-33.691,-24.902,-44.434,-24.902,-218.262
1738233859.277,-43.945,-45.410,-49.316,-32.715,-202.148
1738233859.281,-44.922,-56.641,-49.805,-46.875,-70.801
1738233859.285,-33.203,-39.062,-42.480,-37.598,-51.758
1738233859.289,-27.832,-32.715,-39.551,-20.996,12.207
1738233859.292,-18.555,-42.969,-41.504,-13.184,24.414
1738233859.296,-23.926,-60.059,-42.480,-7.324,411.621
1738233859.300,-47.852,-59.570,-42.480,-5.859,729.980
1738233859.304,-49.316,-42.969,-41.016,-18.066,64.941
1738233859.308,-32.227,-45.410,-41.016,-42.480,-295.898
1738233859.310,-21.973,-48.340,-41.016,-43.945,-202.148
1738233859.314,-21.973,-47.363,-41.992,-45.898,-260.254
1738233859.318,-41.016,-59.570,-44.434,-48.828,-226.074
1738233859.322,-42.480,-59.570,-37.109,-30.762,-214.844
1738233859.326,-18.555,-48.340,-29.785,-2.930,-207.520
1738233859.330,-9.766,-46.387,-36.133,-11.719,-76.172
1738233859.334,-14.160,-52.246,-39.062,-46.875,-54.688
1738233859.337,-20.020,-66.895,-37.109,-37.598,52.246
1738233859.341,-32.227,-67.383,-34.180,-14.648,331.543
1738233859.345,-32.715,-51.758,-32.227,-20.020,56.152
1738233859.349,-25.879,-56.641,-36.133,-31.738,-253.418
1738233859.353,-22.949,-70.312,-39.551,-36.621,-116.211
1738233859.370,-35.645,-73.730,-40.527,-39.551,-9.766
1738233859.374,-37.598,-75.195,-41.504,-44.434,-172.363
1738233859.378,-22.461,-77.637,-39.062,-37.109,-214.844
1738233859.382,-25.879,-90.332,-40.527,-40.527,-22.949
1738233859.386,-34.668,-94.727,-43.457,-39.062,-73.242
1738233859.390,-36.133,-95.215,-43.945,-35.156,37.598
1738233859.394,-40.039,-96.191,-43.457,-45.410,69.336
1738233859.397,-23.438,-91.797,-40.039,-50.293,272.461
1738233859.401,-15.625,-83.496,-49.316,-46.875,419.922
1738233859.405,-28.809,-81.543,-58.105,-47.363,-111.328
1738233859.409,-38.574,-104.004,-60.547,-36.621,-201.172
1738233859.413,-51.270,-120.117,-58.594,-38.574,113.770
1738233859.400,-55.664,-109.375,-59.082,-44.922,-118.164
1738233859.404,-45.898,-111.816,-58.105,-30.273,-323.242
1738233859.408,-40.527,-122.559,-57.617,-29.297,-191.895
1738233859.412,-44.434,-125.000,-62.012,-31.250,-92.285
1738233859.416,-56.152,-133.789,-62.988,-23.926,-113.770
1738233859.420,-52.734,-130.859,-66.895,-22.949,-148.438
1738233859.424,-41.504,-129.883,-67.383,-24.902,41.016
1738233859.427,-31.250,-130.859,-68.359,-21.484,199.707
1738233859.431,-33.691,-134.277,-71.777,-21.973,-152.344
1738233859.435,-37.109,-151.367,-74.707,-23.438,-292.969
1738233859.439,-26.855,-153.809,-80.566,-33.691,-8.301
1738233859.443,-26.367,-133.301,-77.148,-31.738,261.719
1738233859.446,-28.809,-120.605,-75.195,-34.180,-112.793
1738233859.450,-24.414,-132.324,-77.148,-27.832,-223.145
1738233859.454,-33.203,-121.094,-81.543,-29.785,199.219
1738233859.458,-35.645,-83.008,-82.520,-33.691,7.812
1738233859.520,-34.180,-56.641,-100.098,-33.203,-286.133
1738233859.524,-37.109,-87.402,-101.562,-23.438,-169.922
1738233859.528,-30.273,-82.520,-97.656,-16.113,-186.523
1738233859.532,-33.691,-88.867,-91.797,-16.113,-219.727
1738233859.536,-35.645,-105.469,-85.449,-25.879,-189.941
1738233859.540,-34.668,-123.047,-80.078,-27.832,73.242
1738233859.544,-39.551,-131.348,-79.590,-31.738,615.234
1738233859.547,-36.621,-104.980,-85.449,-35.645,198.242
1738233859.551,-24.902,-102.051,-83.984,-28.809,-296.875
1738233859.555,-20.508,-122.070,-83.008,-18.066,-119.629
1738233859.559,-26.855,-123.535,-88.867,-14.648,-81.543
1738233859.563,-42.480,-118.164,-87.891,-19.043,-178.223
1738233859.550,-44.922,-112.305,-83.984,-27.832,-229.980
1738233859.554,-22.949,-112.793,-88.867,-15.137,-113.770
1738233859.558,-6.836,-116.699,-92.285,-5.859,-89.844
1738233859.562,-19.531,-128.906,-89.844,-1.953,-217.773
1738233859.566,-40.039,-124.512,-99.121,-2.930,-136.719
1738233859.570,-39.551,-110.840,-102.539,-19.043,205.078
1738233859.574,-26.367,-110.352,-96.680,-31.250,116.699
1738233859.577,-18.555,-125.000,-97.656,-27.344,-70.801
1738233859.581,-22.949,-145.020,-92.773,-14.648,55.176
1738233859.585,-39.551,-160.156,-84.473,-22.461,184.570
1738233859.589,-33.691,-146.484,-84.961,-29.785,-59.082
1738233859.593,-24.902,-134.766,-84.473,-20.020,-249.512
1738233859.595,-29.785,-142.578,-83.496,-12.207,-182.617
1738233859.599,-21.973,-148.438,-83.008,-3.418,383.789
1738233859.603,-29.297,-153.320,-80.566,-19.043,718.262
1738233859.607,-30.762,-136.230,-77.148,-43.457,34.668
1738233859.611,-18.555,-121.582,-74.707,-41.016,-260.742
1738233859.615,-13.184,-119.141,-75.684,-34.180,35.645
1738233859.619,-5.859,-114.746,-80.078,-43.945,16.602
1738233859.622,-20.508,-133.301,-77.637,-40.527,-147.949
1738233859.626,-35.156,-151.367,-63.965,-31.738,-67.871
1738233859.630,-26.855,-133.789,-52.734,-31.250,83.496
1738233859.634,-14.160,-125.488,-56.641,-17.578,-109.375
1738233859.638,-10.742,-133.301,-55.664,-18.066,-283.691
1738233859.640,-20.508,-156.738,-48.340,-19.043,85.938
1738233859.644,-32.227,-154.785,-50.781,-12.695,414.551
1738233859.648,-22.461,-120.605,-50.781,-7.812,-79.590
1738233859.652,-13.184,-121.582,-50.293,5.371,-254.395
1738233859.656,-14.648,-129.883,-52.734,13.672,-54.688
1738233859.660,-25.391,-130.371,-58.105,5.371,-10.742
1738233859.664,-45.410,-128.418,-63.477,-25.879,-69.336
1738233859.667,-23.438,-113.770,-58.105,-41.016,-2.930
1738233859.671,4.395,-107.422,-56.152,-34.668,318.848
1738233859.675,-12.695,-108.887,-64.453,-28.320,43.457
1738233859.679,-27.344,-124.512,-73.242,-7.324,-254.883
1738233859.683,-25.879,-128.906,-73.730,9.277,-113.770
1738233859.685,-19.043,-114.258,-75.684,-5.371,498.535
1738233859.689,-15.137,-104.492,-77.148,-33.203,560.059
1738233859.693,-15.137,-110.840,-70.801,-37.109,-89.844
1738233859.697,-8.789,-131.348,-66.406,-27.344,-253.906
1738233859.701,-28.320,-137.207,-67.383,-33.691,-165.039
1738233859.705,-37.109,-134.277,-70.312,-47.363,-104.004
1738233859.709,-18.066,-126.465,-62.500,-33.691,-181.152
1738233859.712,-9.277,-117.676,-53.223,-12.695,-62.012
1738233859.716,-16.602,-121.582,-60.547,-16.602,270.508
1738233859.720,-33.691,-119.629,-63.965,-35.645,-125.488
1738233859.724,-27.832,-102.051,-57.617,-33.203,-363.281
1738233859.728,-13.184,-94.238,-55.664,-30.273,-175.293
1738233859.745,-22.949,-91.797,-57.617,-30.762,-170.898
1738233859.749,-21.973,-94.727,-63.477,-20.996,-192.383
1738233859.753,-25.879,-122.559,-61.035,-12.695,-52.246
1738233859.757,-33.203,-122.559,-57.129,-20.020,69.824
1738233859.761,-9.766,-93.750,-61.523,-31.738,-120.117
1738233859.765,-7.324,-97.656,-60.059,-23.926,-173.828
1738233859.769,-23.926,-116.699,-61.523,-18.555,19.531
1738233859.772,-31.738,-138.184,-62.500,-17.578,445.312
1738233859.776,-50.293,-122.070,-66.895,-31.738,556.641
1738233859.780,-43.457,-94.238,-69.336,-39.062,-134.766
1738233859.784,-25.879,-100.098,-69.336,-30.762,-288.086
1738233859.788,-25.391,-104.004,-70.801,-33.203,-89.355
1738233859.775,-34.180,-117.676,-69.824,-45.410,-186.523
1738233859.779,-49.316,-132.812,-68.359,-40.039,-251.465
1738233859.783,-38.086,-137.207,-63.477,-10.742,-238.770
1738233859.787,-20.996,-146.973,-67.871,-2.441,-220.215
1738233859.791,-19.043,-152.344,-73.730,-16.113,-121.582
1738233859.795,-28.320,-148.438,-74.707,-41.016,-50.293
1738233859.799,-36.621,-143.555,-67.871,-36.133,147.461
1738233859.802,-32.715,-118.652,-62.988,-26.855,324.219
1738233859.806,-20.508,-97.168,-64.453,-32.715,-75.195
1738233859.810,-18.555,-96.191,-62.988,-45.898,-274.902
1738233859.814,-21.973,-108.398,-61.523,-32.715,4.883
1738233859.818,-32.715,-115.234,-60.059,-25.879,351.074
1738233859.820,-28.809,-93.262,-63.965,-40.527,-98.145
1738233859.824,-9.277,-86.426,-62.988,-25.879,-332.031
1738233859.828,-15.137,-97.168,-58.105,-9.766,-128.418
1738233859.832,-29.297,-98.633,-59.082,-8.789,-134.277
1738233859.836,-40.039,-111.328,-61.523,-30.762,-186.035
1738233859.840,-34.668,-129.395,-60.547,-53.223,19.531
1738233859.844,-24.414,-118.652,-53.711,-46.875,383.301
1738233859.847,-23.926,-91.309,-52.734,-38.086,274.902
1738233859.851,-22.949,-90.820,-54.199,-39.551,-30.273
1738233859.855,-35.156,-109.375,-53.711,-28.809,-78.125
1738233859.859,-41.992,-108.398,-51.270,-18.066,224.121
1738233859.863,-36.621,-80.566,-56.641,-32.227,81.055
1738233859.865,-35.156,-81.055,-60.547,-28.809,-265.625
1738233859.869,-29.785,-105.469,-55.664,-18.066,-226.562
1738233859.873,-27.344,-125.488,-58.594,-20.020,-150.391
1738233859.877,-39.551,-125.488,-68.848,-29.297,-173.828
1738233859.881,-36.133,-105.957,-66.895,-26.367,-313.965
1738233859.885,-22.461,-100.586,-63.477,-14.648,-9.766
1738233859.889,-23.926,-107.422,-67.871,-21.973,364.258
1738233859.892,-32.227,-124.512,-62.500,-12.207,-20.508
1738233859.896,-37.598,-128.418,-55.664,-11.230,-218.262
1738233859.900,-24.414,-107.910,-55.176,-17.578,-39.062
1738233859.904,-15.625,-96.680,-57.617,-16.113,9.766
1738233859.908,-11.230,-95.703,-56.152,-40.527,-166.992
1738233859.925,-20.508,-108.398,-55.664,-38.574,-220.703
1738233859.929,-41.504,-117.188,-54.688,-25.879,98.145
1738233859.933,-44.434,-98.633,-49.805,-34.668,189.941
1738233859.937,-28.809,-93.750,-48.828,-32.227,-199.219
1738233859.941,-24.902,-105.957,-43.457,-19.043,-175.781
1738233859.945,-32.227,-118.652,-41.504,-15.137,242.188
1738233859.949,-37.598,-117.676,-44.434,-22.461,133.789
1738233859.952,-36.621,-93.750,-43.457,-28.809,-200.195
1738233859.956,-15.137,-83.984,-40.039,-15.625,-63.477
1738233859.960,-4.395,-96.680,-38.574,-15.137,384.766
1738233859.964,-14.160,-90.332,-35.645,-19.043,386.719
1738233859.968,-29.785,-92.285,-31.250,-28.320,-122.559
1738233859.985,-33.203,-101.562,-37.109,-41.016,-75.684
1738233859.989,-24.902,-88.867,-44.922,-34.668,41.504
1738233859.993,-21.973,-84.473,-44.922,-30.762,-186.523
1738233859.997,-28.320,-86.914,-46.387,-24.414,-252.441
1738233860.001,-39.551,-98.145,-44.922,-14.648,-129.883
1738233860.005,-31.738,-100.098,-36.621,-8.789,-1.465
1738233860.009,-19.043,-96.680,-34.668,-15.137,38.086
1738233860.012,-29.785,-104.492,-40.527,-29.785,-180.664
1738233860.016,-34.180,-114.746,-41.992,-25.391,-95.703
1738233860.020,-34.180,-125.488,-42.969,-20.996,316.406
1738233860.024,-41.504,-120.117,-44.434,-39.062,-78.613
1738233860.028,-27.832,-101.074,-34.668,-38.574,-359.375
1738233860.016,-17.090,-98.633,-32.715,-21.484,-177.734
1738233860.020,-29.297,-103.516,-41.504,-29.785,-189.453
1738233860.024,-44.922,-105.469,-46.387,-34.180,-171.387
1738233860.028,-48.828,-100.098,-49.316,-35.645,-4.395
1738233860.032,-31.738,-80.078,-46.875,-39.551,92.773
1738233860.036,-17.090,-74.707,-41.504,-33.691,143.555
1738233860.040,-27.344,-79.102,-36.621,-26.367,58.594
1738233860.043,-37.598,-87.402,-35.156,-12.207,-38.086
1738233860.047,-35.156,-93.750,-41.504,-15.137,183.594
1738233860.051,-26.367,-76.172,-43.945,-31.250,-47.363
1738233860.055,-19.043,-78.613,-44.922,-31.250,-293.945
1738233860.059,-12.695,-80.566,-42.480,-30.762,-130.371
1738233860.105,-15.625,-72.266,-42.969,-42.480,104.004
1738233860.109,-29.785,-68.848,-45.410,-44.434,-39.551
1738233860.113,-29.297,-55.664,-47.363,-42.480,-257.812
1738233860.117,-15.625,-48.828,-51.758,-33.691,-196.777
1738233860.121,-16.602,-48.828,-48.340,-13.184,348.633
1738233860.125,-26.855,-44.922,-51.270,-18.066,335.449
1738233860.129,-26.855,-64.941,-56.641,-35.645,-0.977
1738233860.132,-16.602,-66.895,-57.129,-46.875,119.141
1738233860.136,4.395,-48.828,-58.105,-36.621,424.805
1738233860.140,-3.418,-33.691,-57.129,-24.902,88.379
1738233860.144,-20.996,-43.945,-52.734,-21.973,-279.297
1738233860.148,-31.250,-80.078,-53.711,-4.883,-161.133
1738233860.136,-34.668,-83.984,-55.176,-13.184,-206.543
1738233860.140,-18.555,-66.406,-53.223,-20.508,-312.988
1738233860.144,-11.230,-69.336,-55.664,-19.043,-252.930
1738233860.148,-18.555,-80.566,-57.129,-35.156,-130.371
1738233860.152,-33.691,-94.238,-52.246,-37.598,-146.484
1738233860.156,-41.504,-92.285,-53.711,-37.598,-185.547
1738233860.160,-30.762,-80.566,-52.246,-44.922,-130.371
1738233860.163,-16.113,-81.543,-48.340,-38.086,140.625
1738233860.167,-16.113,-85.449,-50.781,-22.949,115.234
1738233860.171,-33.691,-91.797,-54.199,-7.812,-44.434
1738233860.175,-34.668,-90.332,-56.641,-7.812,-126.953
1738233860.179,-14.648,-76.660,-57.129,-16.602,-93.262
1738233860.181,-16.113,-68.359,-58.105,-12.695,-164.551
1738233860.185,-27.344,-76.660,-61.523,-4.395,-231.934
1738233860.189,-35.156,-96.680,-64.941,-10.254,-105.469
1738233860.193,-42.969,-92.773,-67.871,-19.043,30.273
1738233860.197,-32.227,-74.707,-62.988,-22.949,-90.820
1738233860.201,-21.484,-82.520,-59.082,-11.719,-125.488
1738233860.205,-24.902,-98.145,-60.059,-3.418,205.566
1738233860.208,-24.902,-106.445,-58.594,-23.926,564.453
1738233860.212,-30.762,-103.027,-58.105,-42.969,83.496
1738233860.216,-30.273,-93.750,-54.688,-33.203,-267.578
1738233860.220,-14.648,-88.867,-52.246,-12.207,59.570
1738233860.224,-13.184,-81.543,-54.688,-11.230,150.879
1738233860.195,-29.785,-96.680,-57.617,-14.648,-160.156
1738233860.199,-36.621,-112.305,-58.105,-20.996,-261.719
1738233860.203,-26.367,-96.191,-57.617,-14.648,82.031
1738233860.207,-10.742,-62.012,-59.082,-14.648,507.324
1738233860.211,-19.043,-43.945,-62.012,-23.926,43.457
1738233860.215,-17.578,-57.129,-60.547,-18.066,-94.238
1738233860.219,-19.531,-67.871,-63.965,-21.973,264.160
1738233860.222,-28.809,-53.711,-67.383,-33.691,12.695
1738233860.226,-21.484,-41.016,-59.570,-17.090,-191.406
1738233860.230,-13.672,-47.363,-57.129,5.859,-103.027
1738233860.234,-16.602,-58.105,-63.477,-3.418,-33.691
1738233860.238,-34.180,-67.383,-65.918,-10.742,-137.695
1738233860.242,-35.156,-62.500,-60.547,-10.742,-180.664
1738233860.246,-21.484,-56.152,-53.711,-16.602,-185.547
1738233860.250,-16.602,-77.148,-50.781,-6.348,263.184
1738233860.254,-10.254,-74.707,-56.641,-3.906,657.227
1738233860.258,-17.090,-58.594,-61.523,-21.973,200.195
1738233860.262,-40.039,-57.617,-57.129,-18.066,-47.363
1738233860.266,-28.320,-44.922,-54.688,-11.230,20.508
1738233860.269,0.488,-32.227,-54.199,-23.438,-229.004
1738233860.273,-4.395,-38.086,-50.293,-28.320,-340.332
1738233860.277,-20.508,-64.941,-48.828,-25.879,-194.336
1738233860.281,-24.414,-55.664,-54.199,-34.668,-108.887
1738233860.285,-23.438,-18.555,-59.082,-30.762,-246.094
1738233860.300,-20.996,-14.648,-45.898,-1.465,-305.176
1738233860.304,-25.879,-27.832,-34.668,4.395,-64.453
1738233860.308,-37.598,-34.668,-37.598,-8.301,39.551
1738233860.312,-43.457,-43.945,-42.969,-27.832,-39.062
1738233860.316,-25.391,-34.668,-45.410,-41.992,-232.422
1738233860.320,-2.930,-39.062,-45.898,-36.621,273.438
1738233860.324,-10.254,-38.086,-40.039,-27.344,705.566
1738233860.327,-29.297,-29.785,-38.086,-20.020,23.438
1738233860.331,-37.598,-47.363,-43.457,-14.648,-58.105
1738233860.335,-33.203,-40.039,-38.574,-11.230,260.742
1738233860.339,-25.391,-9.766,-36.621,-20.996,-41.016
1738233860.343,-22.949,-14.160,-37.598,-24.414,-302.246
1738233860.345,-24.414,-22.461,-39.551,-27.344,-240.723
1738233860.349,-25.391,-24.414,-43.457,-28.809,-148.926
1738233860.353,-22.949,-22.461,-43.457,-28.320,-166.992
1738233860.357,-19.531,-20.508,-41.992,-25.391,-226.074
1738233860.361,-19.043,-36.133,-40.527,-6.348,-120.117
1738233860.365,-17.578,-46.875,-41.992,-3.906,18.066
1738233860.369,-34.668,-51.270,-50.781,-32.227,103.516
1738233860.372,-46.875,-45.898,-54.199,-41.016,-85.449
1738233860.376,-28.809,-35.156,-43.945,-20.508,-87.891
1738233860.380,-18.066,-34.180,-37.109,-18.066,447.266
1738233860.384,-30.273,-32.715,-41.504,-28.809,121.582
1738233860.388,-38.574,-59.570,-45.898,-30.762,-274.414
1738233860.390,-31.738,-76.172,-49.316,-30.762,-39.062
1738233860.394,-20.508,-55.664,-48.340,-26.367,-97.656
1738233860.398,-16.602,-52.246,-45.898,-18.555,-280.273
1738233860.402,-19.043,-59.570,-48.340,-8.301,-186.523
1738233860.406,-24.414,-72.266,-53.711,-15.625,-64.941
1738233860.410,-35.645,-76.660,-54.199,-36.133,15.625
1738233860.414,-31.250,-54.199,-47.852,-27.344,-119.141
1738233860.417,-11.719,-63.965,-45.410,-14.160,-126.953
1738233860.421,-5.371,-84.473,-53.223,-17.090,355.957
1738233860.425,-29.785,-81.055,-59.570,-33.691,241.699
1738233860.429,-47.852,-85.449,-58.594,-39.062,-163.574
1738233860.433,-29.785,-80.078,-53.223,-28.320,-249.512
1738233860.435,-13.184,-85.938,-46.875,-14.160,296.387
1738233860.439,-17.578,-90.820,-48.340,-7.324,553.711
1738233860.443,-26.855,-94.727,-48.340,-14.160,-22.949
1738233860.447,-51.270,-105.957,-49.805,-15.137,-224.121
1738233860.451,-49.805,-80.078,-49.316,-24.414,-196.777
1738233860.455,-26.855,-57.617,-41.992,-19.531,-119.141
1738233860.459,-15.137,-55.176,-35.156,-2.441,-25.879
1738233860.462,-20.020,-68.359,-39.551,-11.230,29.785
1738233860.466,-32.227,-76.660,-44.922,-34.668,263.184
1738233860.470,-28.809,-54.688,-42.480,-44.434,-95.703
1738233860.474,-8.301,-59.082,-46.387,-44.434,-285.645
1738233860.478,-6.348,-76.660,-52.734,-37.598,-35.156
1738233860.481,-21.973,-73.242,-54.688,-27.344,-56.152
1738233860.485,-40.039,-78.613,-57.617,-17.578,-261.230
1738233860.489,-45.410,-77.148,-59.082,-28.320,-265.625
1738233860.493,-33.203,-59.082,-63.965,-41.016,-154.785
1738233860.526,-41.016,-94.238,-58.594,-38.574,-104.004
1738233860.530,-26.367,-67.383,-56.641,-27.832,-258.301
1738233860.534,-8.789,-76.660,-56.641,-2.441,-128.418
1738233860.538,-23.926,-101.074,-54.688,-7.812,131.348
1738233860.542,-39.062,-105.469,-56.152,-38.574,-66.895
1738233860.546,-30.273,-113.770,-56.152,-39.062,-263.184
1738233860.550,-10.254,-111.328,-49.316,-27.344,-68.359
1738233860.553,-0.977,-113.770,-49.805,-6.348,437.012
1738233860.557,-14.648,-102.539,-51.758,1.953,165.039
1738233860.561,-21.973,-112.793,-55.176,-5.859,-266.113
1738233860.565,-28.320,-138.184,-57.617,-30.762,-174.805
1738233860.569,-26.855,-125.000,-53.711,-39.062,-172.363
1738233860.570,-16.602,-115.234,-47.852,-14.160,-225.098
1738233860.574,-5.859,-128.906,-44.434,-9.766,-213.867
1738233860.578,-6.348,-142.090,-50.293,-16.602,-79.102
1738233860.582,-33.203,-148.438,-55.664,-13.672,17.578
1738233860.586,-30.762,-126.465,-45.898,-19.531,-153.809
1738233860.590,-10.254,-113.281,-41.992,-21.973,-158.203
1738233860.594,-15.625,-126.465,-41.992,11.719,436.523
1738233860.597,-24.414,-120.117,-33.691,9.277,605.469
1738233860.601,-33.203,-124.512,-34.180,-17.090,-16.113
1738233860.605,-26.367,-128.906,-41.016,-23.926,-206.543
1738233860.609,-13.672,-116.211,-43.945,-8.789,89.844
1738233860.613,-20.020,-104.492,-40.039,-7.812,-68.359
1738233860.615,-15.625,-97.168,-40.527,-30.762,-267.578
1738233860.619,-11.719,-106.445,-42.969,-48.340,-201.172
1738233860.623,-17.090,-104.004,-39.062,-54.688,-224.609
1738233860.627,-7.324,-85.449,-36.133,-26.367,-242.676
1738233860.631,2.930,-84.473,-33.203,-10.742,-184.570
1738233860.635,-2.930,-93.750,-28.809,-17.090,24.414
1738233860.639,-22.461,-102.539,-24.414,-19.531,204.590
1738233860.642,-35.645,-96.191,-25.391,-35.156,-16.113
1738233860.646,-13.672,-74.219,-26.855,-22.949,-138.672
1738233860.650,0.000,-82.520,-24.414,2.930,-20.508
1738233860.654,-11.230,-86.426,-19.531,-3.906,-7.324
1738233860.658,-31.738,-94.727,-23.926,-29.297,-159.668
1738233860.675,-51.270,-109.863,-30.273,-51.270,-364.258
1738233860.679,-32.715,-96.191,-27.832,-28.320,-50.293
1738233860.683,-9.277,-71.777,-24.414,22.461,338.867
1738233860.687,-13.184,-66.895,-23.438,37.109,28.320
1738233860.691,-20.020,-87.402,-25.879,5.371,-102.051
1738233860.695,-28.320,-100.586,-28.320,-32.715,114.746
1738233860.699,-18.066,-74.707,-28.809,-46.875,70.312
1738233860.702,13.184,-62.500,-42.969,-26.367,-75.684
1738233860.706,37.598,-71.289,-42.969,23.438,86.914
1738233860.710,22.949,-92.285,-20.996,34.180,652.832
1738233860.714,-14.648,-102.051,-23.438,5.371,657.227
1738233860.718,-31.738,-83.008,-23.926,2.930,-106.445
1738233860.720,-16.113,-77.148,-16.602,0.000,-256.348
1738233860.724,-11.230,-79.102,-10.254,-43.945,-94.727
1738233860.728,-35.645,-90.332,-2.441,-62.988,-178.223
1738233860.732,-75.195,-118.652,-2.441,-64.941,-319.336
1738233860.736,-77.637,-128.418,4.883,-61.523,-370.605
1738233860.740,-55.176,-126.465,9.766,-30.273,-84.473
1738233860.744,-58.594,-141.113,2.930,-15.137,112.793
1738233860.747,-73.730,-154.297,-2.441,-28.320,-83.496
1738233860.751,-94.238,-194.336,4.883,-52.734,-106.934
1738233860.755,-109.863,-210.449,14.648,-75.684,229.492
1738233860.759,-95.703,-185.059,20.020,-76.660,59.570
1738233860.763,-67.871,-193.848,18.066,-48.340,-89.844
1738233860.765,-70.801,-214.355,19.043,-48.340,49.805
1738233860.769,-91.309,-228.516,20.996,-42.969,-40.039
1738233860.773,-118.652,-220.703,14.160,-60.547,-329.102
1738233860.777,-97.656,-204.102,10.742,-69.336,-258.789
1738233860.781,-86.914,-199.707,13.672,-39.551,10.742
1738233860.785,-81.543,-182.129,20.020,-16.602,215.332
1738233860.789,-88.379,-187.012,6.836,-36.133,121.094
1738233860.792,-129.883,-202.148,1.465,-103.516,-98.633
1738233860.796,-102.539,-173.340,3.906,-80.566,136.719
1738233860.800,-65.918,-135.742,1.953,-55.664,61.035
1738233860.804,-65.918,-124.023,-4.395,-93.262,-128.906
1738233860.808,-78.125,-130.859,-7.324,-77.148,-83.008
1738233860.811,-95.703,-128.418,-7.324,-55.664,-126.953
1738233860.815,-71.777,-92.285,-14.648,-52.246,-191.895
1738233860.819,-31.250,-56.152,-24.414,-26.367,-173.828
1738233860.823,-26.855,-50.293,-27.832,-14.160,-49.316
1738233860.827,-44.434,-60.059,-29.785,-33.203,484.863
1738233860.831,-66.406,-37.598,-39.551,-45.410,391.113
1738233860.835,-54.688,-4.883,-43.945,-33.691,-198.730
1738233860.838,-18.066,7.812,-40.039,-20.020,-42.969
1738233860.842,-8.301,13.672,-39.551,-5.859,427.246
1738233860.846,-20.020,12.695,-38.574,-7.812,45.410
1738233860.850,-46.875,-10.742,-44.434,-34.180,-358.887
1738233860.854,-49.316,-5.371,-51.758,-27.832,-277.344
1738233860.855,-17.578,23.438,-44.434,6.836,-216.797
1738233860.859,-4.883,26.855,-34.668,29.297,-159.668
1738233860.863,1.953,12.695,-41.504,7.812,-12.695
1738233860.867,-28.809,-6.348,-46.875,-29.785,79.590
1738233860.871,-38.574,-2.930,-40.527,-42.969,-159.180
1738233860.875,1.953,5.859,-39.551,-28.809,-89.844
1738233860.879,9.277,3.906,-39.551,-0.488,141.113
1738233860.882,2.930,-11.719,-38.574,15.137,536.133
1738233860.886,-27.344,-34.668,-41.992,-11.230,820.801
1738233860.890,-48.828,-19.531,-47.852,-41.992,80.566
1738233860.894,-6.836,-0.488,-46.387,-8.789,-300.293
1738233860.898,6.836,-3.906,-38.086,21.484,-83.008
1738233860.900,-4.395,-13.184,-39.062,3.418,-123.047
1738233860.904,-24.414,-35.156,-48.340,-21.973,-245.117
1738233860.908,-49.316,-47.852,-49.805,-32.715,-322.266
1738233860.912,-21.484,-29.785,-43.457,-25.879,-289.551
1738233860.916,6.348,-17.090,-40.527,-26.367,-185.547
1738233860.920,11.230,-21.484,-44.922,-35.645,-113.770
1738233860.924,-6.348,-33.203,-50.781,-24.902,37.109
1738233860.927,-37.109,-37.109,-48.828,-21.973,480.957
1738233860.931,-14.160,-2.930,-49.316,-24.414,78.613
1738233860.935,9.277,5.371,-42.480,-4.395,-282.715
1738233860.939,-3.418,-8.301,-37.109,1.465,-45.410
1738233860.943,-17.090,-17.090,-41.504,-18.066,-65.918
1738233860.959,-43.945,-30.762,-45.898,-29.297,-259.766
1738233860.963,-37.598,-18.066,-43.945,-30.273,-280.273
1738233860.967,-2.441,-12.207,-37.598,-20.996,-86.426
1738233860.971,20.020,-21.973,-32.715,14.160,-12.695
1738233860.975,18.066,-12.207,-41.016,22.949,-106.934
1738233860.979,-41.504,-19.531,-52.246,-26.367,-56.152
1738233860.983,-56.641,-24.414,-51.270,-54.688,351.562
1738233860.986,-14.160,0.977,-51.758,-41.504,385.742
1738233860.990,13.184,4.395,-60.547,-22.949,90.332
1738233860.994,5.859,-1.953,-65.430,-18.066,81.543
1738233860.998,-25.879,-22.461,-67.871,-14.648,266.602
1738233861.002,-34.668,-12.207,-66.895,-23.926,28.809
1738233860.989,0.977,21.484,-62.988,-41.504,-281.738
1738233860.993,35.645,19.043,-72.266,-38.574,-142.578
1738233860.997,9.277,5.371,-73.242,-52.734,-58.594
1738233861.001,-16.113,-7.812,-72.266,-46.387,-169.434
1738233861.005,-22.949,0.000,-76.660,-55.664,-334.961
1738233861.009,17.578,19.043,-76.172,-37.598,-104.004
1738233861.013,35.645,25.391,-76.660,-4.883,201.172
1738233861.016,4.395,25.879,-76.660,-21.484,74.707
1738233861.020,-1.465,4.883,-83.984,-17.578,-244.141
1738233861.024,-0.977,-16.113,-79.102,-12.695,-203.125
1738233861.028,16.113,9.277,-73.242,-6.836,205.078
1738233861.032,22.949,24.414,-75.195,-6.348,0.000
1738233861.050,23.926,9.277,-65.918,14.648,-200.684
1738233861.054,12.695,-8.301,-57.129,19.043,-7.812
1738233861.058,-23.926,-9.766,-59.082,-36.621,-103.516
1738233861.062,-9.277,13.184,-56.641,-38.574,-320.312
1738233861.066,36.133,15.625,-53.711,-6.836,-190.918
1738233861.070,39.062,0.000,-58.105,-3.906,205.078
1738233861.074,7.324,-11.719,-60.059,-10.742,132.324
1738233861.077,-18.555,-19.043,-60.059,-22.949,-200.684
1738233861.081,7.812,-1.465,-55.664,-21.973,-200.195
1738233861.085,38.086,-2.441,-51.270,0.488,257.812
1738233861.089,34.180,0.000,-49.805,7.324,345.703
1738233861.093,15.625,0.977,-49.316,14.160,-157.227
1738233861.095,-32.227,-28.809,-47.852,5.859,-236.816
1738233861.099,-32.715,-20.996,-48.340,-13.184,-8.301
1738233861.103,16.113,11.230,-50.293,-18.066,-110.352
1738233861.107,25.879,5.859,-47.852,-2.930,-271.484
1738233861.111,8.301,-12.207,-45.898,-5.859,-83.008
1738233861.115,-32.227,-33.203,-49.316,-41.992,132.812
1738233861.119,-39.551,-28.809,-51.758,-52.734,-108.398
1738233861.122,0.488,-8.301,-51.270,-34.668,-313.965
1738233861.126,10.742,-16.602,-49.805,-18.066,-85.938
1738233861.130,1.953,-27.344,-49.316,-10.254,380.859
1738233861.134,-31.250,-37.109,-49.316,-29.785,-7.812
1738233861.138,-43.457,-41.504,-48.828,-30.273,-338.379
1738233861.140,-7.812,-25.391,-49.316,1.465,-132.324
1738233861.144,0.977,-20.996,-51.758,26.855,-41.016
1738233861.148,1.465,-30.273,-53.223,4.395,-123.047
1738233861.152,-14.648,-48.828,-53.223,-48.340,-151.855
1738233861.156,-34.180,-62.012,-51.270,-61.035,56.641
1738233861.160,-6.836,-35.645,-45.898,-46.387,41.016
1738233861.164,3.418,-21.484,-44.922,-27.344,-16.113
1738233861.167,3.906,-31.250,-41.992,-16.602,72.266
1738233861.171,-12.207,-46.387,-48.340,-24.414,279.785
1738233861.175,-54.688,-53.223,-50.293,-41.016,-86.426
1738233861.179,-24.902,-37.109,-37.109,-22.949,-383.301
1738233861.183,31.250,-27.832,-32.715,25.879,-222.168
1738233861.214,17.090,-27.832,-37.598,24.902,365.723
1738233861.218,-20.508,-22.949,-44.922,-23.926,345.215
1738233861.222,-48.340,-32.715,-48.340,-36.621,-282.227
1738233861.226,-31.738,-29.297,-47.852,-33.691,-335.938
1738233861.230,-0.488,-6.836,-53.223,-35.645,-125.977
1738233861.234,-9.277,-10.254,-61.035,-31.738,112.793
1738233861.238,-27.832,-22.949,-62.988,-41.504,110.352
1738233861.241,-46.387,-43.945,-57.129,-45.410,83.496
1738233861.245,-23.438,-38.574,-54.199,-36.621,361.816
1738233861.249,-3.906,-9.277,-57.617,-29.785,59.570
1738233861.253,-7.812,-17.578,-55.664,-17.578,-240.234
1738233861.257,-14.160,-29.297,-53.711,-8.789,-78.613
1738233861.229,-44.434,-41.504,-54.688,-25.391,-205.566
1738233861.233,-42.969,-32.227,-52.734,-50.781,-366.699
1738233861.237,-12.695,-19.043,-47.363,-42.480,-275.879
1738233861.241,-12.695,-33.691,-47.852,-24.414,-52.246
1738233861.245,-23.926,-39.551,-49.805,-19.531,-55.176
1738233861.249,-29.785,-55.664,-50.293,-43.945,-178.223
1738233861.253,-29.297,-55.176,-53.711,-50.293,-141.602
1738233861.256,-18.066,-31.738,-54.199,-16.602,96.680
1738233861.260,-14.648,-25.391,-55.664,-11.719,107.910
1738233861.264,-20.508,-33.203,-57.617,-27.832,-57.129
1738233861.268,-35.156,-55.664,-58.105,-33.691,-119.629
1738233861.272,-47.852,-55.176,-59.082,-47.363,-93.262
1738233861.275,-25.391,-30.273,-50.781,-39.062,-158.203
1738233861.279,-14.160,-31.250,-42.969,-23.438,-158.691
1738233861.283,-16.602,-41.504,-44.922,-15.625,-43.457
1738233861.287,-24.902,-59.570,-45.898,-20.020,474.609
1738233861.291,-55.176,-64.453,-49.805,-49.316,581.055
1738233861.295,-35.156,-31.738,-49.805,-55.664,65.430
1738233861.299,-3.418,-25.391,-46.387,-34.180,131.348
1738233861.302,-13.184,-36.621,-49.316,-21.973,507.812
1738233861.306,-35.645,-38.086,-53.223,-19.531,39.062
1738233861.310,-41.016,-47.363,-51.758,-37.109,-401.855
1738233861.314,-9.766,-39.551,-52.246,-50.293,-252.930
1738233861.318,6.836,-34.180,-49.316,-31.738,-72.266
1738233861.320,0.977,-34.668,-44.434,-16.113,-127.930
1738233861.324,-22.949,-47.852,-51.270,-35.156,-169.922
1738233861.328,-55.176,-72.754,-55.176,-74.707,-66.895
1738233861.332,-43.457,-46.387,-50.293,-74.707,-190.918
1738233861.336,-15.137,-22.949,-49.316,-48.340,-251.953
1738233861.340,-4.883,-37.109,-51.758,-29.785,62.500
1738233861.344,-13.184,-49.316,-51.270,-24.414,462.402
1738233861.347,-50.781,-60.059,-46.875,-33.691,349.121
1738233861.351,-45.410,-46.387,-40.527,-23.926,-155.273
1738233861.355,-11.719,-34.180,-41.504,-17.578,-227.539
1738233861.359,-16.113,-47.363,-48.828,-22.461,133.301
1738233861.363,-28.809,-48.340,-52.246,-24.902,-9.277
1738233861.366,-47.363,-60.547,-50.293,-31.250,-354.492
1738233861.370,-51.758,-58.594,-47.852,-43.457,-279.297
1738233861.374,-22.949,-37.598,-42.969,-42.969,-94.727
1738233861.378,-8.789,-35.645,-37.109,-25.391,-128.418
1738233861.382,-20.508,-41.016,-35.156,-19.531,-217.285
1738233861.386,-45.410,-71.777,-41.016,-30.762,91.797
1738233861.390,-46.387,-79.102,-41.992,-43.457,473.145
1738233861.393,-19.531,-38.574,-44.434,-32.715,-3.906
1738233861.397,-20.020,-32.227,-50.293,-26.855,-285.156
1738233861.401,-27.832,-45.410,-49.805,-35.645,-20.508
1738233861.405,-40.527,-60.059,-51.270,-31.250,66.406
1738233861.409,-77.637,-62.988,-50.781,-51.270,-288.086
1738233861.425,-56.152,-44.922,-52.734,-56.641,-361.328
1738233861.429,-14.648,-44.922,-53.711,-15.625,-3.906
1738233861.433,-27.344,-49.316,-44.434,3.418,47.852
1738233861.437,-47.363,-59.082,-44.434,-26.855,-131.348
1738233861.441,-62.988,-72.266,-44.434,-58.105,-190.918
1738233861.445,-53.711,-63.477,-41.992,-35.645,250.000
1738233861.449,-30.762,-47.852,-50.293,-10.254,484.863
1738233861.452,-25.879,-39.062,-46.387,2.441,-13.672
1738233861.456,-36.133,-54.688,-40.039,-17.578,-30.762
1738233861.460,-55.664,-79.102,-43.457,-43.457,218.262
1738233861.464,-40.527,-52.246,-45.410,-39.062,25.879
1738233861.468,-16.113,-33.203,-42.969,-29.785,-250.977
1738233861.470,-13.184,-37.109,-41.016,-16.113,-140.625
1738233861.474,-19.043,-45.410,-39.551,-23.438,-57.617
1738233861.478,-53.223,-64.941,-38.086,-21.973,-223.145
1738233861.482,-57.617,-51.270,-36.621,-21.973,-331.543
1738233861.486,-18.066,-34.180,-36.621,-53.223,-192.383
1738233861.490,0.488,-32.227,-42.969,-38.574,70.312
1738233861.494,19.531,-35.156,-45.410,-6.836,55.664
1738233861.497,-8.789,-60.059,-36.133,-32.715,-142.578
1738233861.501,-43.945,-62.500,-24.902,-39.551,-67.871
1738233861.505,-29.297,-44.922,-16.113,-12.207,424.805
1738233861.509,-19.531,-35.645,-14.160,-17.090,175.293
1738233861.513,-28.320,-49.805,-8.789,-23.438,-197.754
1738233861.515,-62.500,-74.707,2.441,-24.902,-141.113
1738233861.519,-86.426,-74.219,6.348,-13.184,-279.785
1738233861.523,-76.660,-57.617,7.812,-32.715,-382.812
1738233861.527,-61.523,-58.594,15.625,-50.293,-220.703
1738233861.560,-106.445,-94.238,20.508,-35.156,-253.418
1738233861.564,-66.895,-84.473,14.160,-20.020,-220.703
1738233861.568,-58.594,-93.750,7.812,-43.945,-190.430
1738233861.572,-69.824,-105.957,10.742,-46.875,-151.367
1738233861.576,-101.074,-113.770,6.836,-60.547,-196.289
1738233861.580,-84.473,-98.145,-0.488,-56.641,-148.926
1738233861.584,-44.434,-78.613,-3.418,-40.527,-114.746
1738233861.587,-47.363,-77.148,-2.930,-30.273,15.625
1738233861.591,-63.477,-85.938,-7.812,-25.391,409.180
1738233861.595,-85.938,-85.938,-15.625,-32.227,-33.691
1738233861.599,-73.242,-74.707,-17.090,-21.973,-419.434
1738233861.603,-44.922,-62.012,-18.555,-0.977,-134.766
1738233861.620,-29.785,-53.711,-20.020,-6.836,-41.992
1738233861.624,-37.109,-58.594,-20.020,-23.438,-173.340
1738233861.628,-80.566,-82.520,-26.367,-36.621,-220.703
1738233861.632,-81.543,-76.660,-29.297,-35.645,-140.625
1738233861.636,-32.227,-45.898,-21.484,-20.020,-151.367
1738233861.640,-18.066,-45.410,-20.508,-18.555,-70.312
1738233861.644,-29.297,-52.246,-28.809,-24.414,70.312
1738233861.647,-52.734,-74.219,-32.715,-24.902,358.887
1738233861.651,-66.895,-71.777,-38.086,-19.043,444.336
1738233861.655,-34.668,-33.691,-32.227,-19.043,-146.973
1738233861.659,-9.277,-38.086,-29.297,-34.180,-205.078
1738233861.663,-21.484,-51.758,-34.180,-30.273,26.855
1738233861.651,-48.340,-57.129,-30.762,-20.996,-166.992
1738233861.655,-53.711,-56.152,-30.762,-32.227,-302.734
1738233861.659,-18.555,-42.969,-35.645,-30.762,-79.102
1738233861.663,-12.695,-41.016,-43.945,-18.555,121.582
1738233861.667,-26.855,-42.969,-46.387,-12.695,-36.133
1738233861.671,-46.387,-61.035,-42.480,-2.930,-126.953
1738233861.675,-71.777,-74.219,-47.363,-27.832,-82.031
1738233861.678,-52.246,-47.852,-50.293,-48.340,-104.004
1738233861.682,-15.625,-33.691,-42.969,-20.020,-153.809
1738233861.686,-8.301,-41.992,-39.551,-23.926,-183.105
1738233861.690,-23.438,-56.641,-39.551,-29.785,20.996
1738233861.694,-59.082,-64.453,-40.527,-21.973,310.059
1738233861.695,-45.410,-36.133,-41.016,-41.504,-94.238
1738233861.699,-4.883,-29.785,-40.039,-50.293,-226.074
1738233861.703,-1.953,-41.016,-40.527,-22.461,121.582
1738233861.707,-11.230,-40.527,-40.527,-1.465,41.016
1738233861.711,-40.527,-53.711,-41.016,6.836,-125.488
1738233861.715,-35.645,-51.758,-40.039,0.488,25.391
1738233861.719,-4.395,-46.387,-41.992,-21.973,445.312
1738233861.722,-3.418,-45.410,-47.852,-35.156,677.734
1738233861.726,-10.742,-42.480,-50.293,-25.391,150.391
1738233861.730,-41.992,-63.965,-43.457,-14.160,-213.379
1738233861.734,-51.270,-69.824,-44.922,-21.484,22.461
1738233861.738,-13.672,-40.039,-44.922,-14.160,-73.242
1738233861.740,-6.348,-36.621,-45.410,5.371,-245.117
1738233861.744,-9.766,-47.363,-48.828,6.836,-190.918
1738233861.748,-38.574,-63.965,-52.734,-30.273,-172.852
1738233861.752,-52.734,-65.430,-53.711,-74.219,-258.301
1738233861.756,-8.301,-48.340,-46.875,-51.270,-308.105
1738233861.760,5.859,-49.805,-44.922,-5.859,28.809
1738233861.764,-15.137,-57.129,-46.387,2.930,340.332
1738233861.767,-42.969,-63.477,-42.480,-4.395,120.605
1738233861.771,-51.270,-61.523,-44.922,-15.625,-241.699
1738233861.775,-13.672,-44.434,-46.875,-38.574,-126.953
1738233861.779,-1.465,-34.668,-46.875,-51.270,223.145
1738233861.783,9.277,-28.809,-52.246,-16.602,-69.336
1738233861.800,27.344,-32.715,-51.758,21.484,-231.934
1738233861.804,-19.531,-46.387,-44.922,-14.648,-165.039
1738233861.808,-27.832,-30.762,-41.992,-67.871,-247.559
1738233861.812,-1.953,-29.785,-41.992,-41.016,-266.602
1738233861.816,-3.418,-48.340,-34.180,11.719,-162.109
1738233861.820,-13.672,-70.312,-35.156,23.926,171.387
1738233861.824,-26.367,-86.914,-39.062,-14.160,122.559
1738233861.827,-7.812,-75.684,-30.762,1.465,-219.238
1738233861.831,16.602,-76.660,-26.855,34.180,-93.262
1738233861.835,16.602,-94.727,-23.438,34.180,287.598
1738233861.839,19.531,-97.656,-21.973,49.805,104.492
1738233861.843,-13.672,-106.934,-21.973,26.855,-260.254
1738233861.860,-11.719,-104.004,-16.602,17.090,-282.715
1738233861.864,44.434,-94.727,-11.719,58.594,254.883
1738233861.868,46.875,-80.078,-18.555,52.734,307.129
1738233861.872,20.996,-79.102,-25.879,27.344,-234.375
1738233861.876,-20.020,-99.121,-21.973,23.926,-254.883
1738233861.880,-5.859,-84.961,-19.531,6.836,-68.359
1738233861.884,43.945,-59.570,-22.949,-18.066,-21.973
1738233861.887,41.016,-56.641,-20.996,-14.160,-185.059
1738233861.891,23.438,-74.219,-12.207,18.066,-55.664
1738233861.895,-15.137,-92.285,-13.672,44.434,344.238
1738233861.899,-23.438,-69.336,-19.531,28.809,-96.680
1738233861.903,27.344,-43.457,-13.184,12.207,-338.867
1738233861.905,46.875,-45.898,-13.184,25.879,45.410
1738233861.909,28.809,-45.898,-22.949,27.344,13.184
1738233861.913,-12.695,-55.664,-23.438,-0.488,-242.188
1738233861.917,-31.250,-63.477,-26.367,-36.621,-306.641
1738233861.921,5.371,-46.875,-30.273,-20.996,-184.570
1738233861.925,28.320,-41.504,-31.250,2.441,56.641
1738233861.929,26.855,-41.504,-33.691,9.277,53.223
1738233861.932,0.000,-53.711,-31.250,8.789,-53.711
1738233861.936,-32.715,-63.477,-33.691,-2.441,95.703
1738233861.940,-0.488,-33.203,-31.738,-9.277,-76.660
1738233861.944,23.438,-23.438,-27.832,11.230,-244.629
1738233861.948,20.508,-36.621,-25.391,17.090,-178.223
1738233861.980,12.207,-55.176,-27.832,-9.766,315.430
1738233861.984,-29.785,-56.152,-33.691,-30.762,427.246
1738233861.988,-12.695,-31.250,-36.133,-33.203,-129.883
1738233861.992,31.738,-23.926,-33.203,1.953,-137.207
1738233861.996,30.273,-28.320,-33.203,33.691,65.918
1738233862.000,15.625,-41.504,-38.086,9.766,-11.230
1738233862.004,-23.926,-54.688,-38.574,-24.414,-83.984
1738233862.007,-22.461,-43.457,-34.180,-16.602,-117.188
1738233862.011,14.160,-23.438,-35.156,0.488,-125.488
1738233862.015,14.160,-20.020,-35.156,-12.695,-126.465
1738233862.019,-8.301,-30.273,-39.551,-26.367,-233.398
1738233862.023,-46.387,-52.246,-41.992,-2.441,-69.824
1738233862.043,-41.016,-41.504,-35.645,5.371,349.121
1738233862.047,0.000,-12.695,-36.621,-20.996,-50.781
1738233862.051,11.719,-17.578,-40.039,-27.832,-210.449
1738233862.055,2.441,-24.902,-42.969,-14.648,24.414
1738233862.059,-46.875,-39.551,-46.387,-29.297,-76.172
1738233862.063,-56.152,-42.480,-44.434,-37.598,-182.129
1738233862.067,-2.441,-22.949,-38.086,-20.996,-58.105
1738233862.070,5.371,-29.297,-39.062,-9.277,291.992
1738233862.074,8.789,-35.645,-38.086,22.461,210.938
1738233862.078,-15.137,-45.410,-35.645,22.949,-188.965
1738233862.082,-58.105,-43.457,-39.551,-40.039,-290.527
1738233862.086,-36.133,-23.926,-35.156,-49.316,104.004
1738233862.047,-23.438,-11.719,-35.156,-46.875,3.906
1738233862.051,-39.551,-6.348,-42.969,-65.430,-240.723
1738233862.055,-69.336,-20.996,-43.945,-63.477,-152.344
1738233862.059,-104.492,-31.250,-46.875,-78.613,-115.723
1738233862.063,-81.543,-9.277,-51.270,-100.586,-211.426
1738233862.067,-49.316,-1.953,-41.016,-78.613,-157.715
1738233862.071,-41.504,-12.207,-32.227,-50.781,112.793
1738233862.074,-45.898,-19.043,-34.180,-46.387,253.418
1738233862.078,-76.172,-25.879,-41.504,-86.426,-128.418
1738233862.082,-59.570,-20.996,-41.504,-82.520,-333.984
1738233862.086,-22.949,-23.926,-43.457,-22.461,-132.324
1738233862.090,-21.973,-21.484,-42.969,-19.043,0.488
1738233862.099,-37.598,-17.090,-38.086,-44.434,-228.027
1738233862.103,-66.895,-31.738,-38.086,-49.805,-305.176
1738233862.107,-48.340,-26.367,-40.527,-50.293,-93.262
1738233862.111,-11.230,-10.742,-37.598,-22.949,-119.141
1738233862.115,-4.395,-11.230,-39.551,-14.648,-276.855
1738233862.119,-12.695,-29.297,-38.574,-22.461,-75.684
1738233862.123,-49.805,-48.828,-35.645,-36.621,122.559
1738233862.126,-46.875,-36.133,-36.621,-30.762,-150.879
1738233862.130,-5.859,-18.066,-31.738,-17.090,-319.824
1738233862.134,8.301,-16.602,-32.715,-18.555,-147.949
1738233862.138,-2.930,-32.227,-38.086,-32.227,308.594
1738233862.142,-35.645,-44.434,-45.898,-47.363,523.926
1738233862.114,-25.879,-35.156,-44.922,-33.203,497.070
1738233862.118,10.254,-18.555,-39.551,-4.395,358.398
1738233862.122,3.418,-10.742,-32.715,12.695,-108.887
1738233862.126,-0.488,-17.090,-30.273,-9.277,-370.117
1738233862.130,-24.414,-34.668,-37.598,-39.062,-487.305
1738233862.134,-42.969,-42.480,-41.016,-27.344,-293.457
1738233862.138,-4.395,-24.414,-31.738,-10.254,-56.152
1738233862.141,12.207,-16.602,-27.832,-18.555,-245.117
1738233862.145,10.254,-24.414,-35.645,-36.621,-447.266
1738233862.149,-8.301,-44.434,-36.621,-29.297,-246.094
1738233862.153,-42.969,-46.387,-35.156,-22.461,-50.293
1738233862.157,-10.254,-24.902,-31.738,-22.949,-315.430
1738233862.174,10.254,-27.344,-31.738,-8.789,-351.074
1738233862.178,-11.230,-44.434,-32.715,3.906,-57.617
1738233862.182,-28.320,-53.223,-31.738,-14.648,345.215
1738233862.186,-58.594,-48.340,-32.227,-28.809,-160.645
1738233862.190,-24.902,-36.133,-24.902,0.977,-485.840
1738233862.194,6.836,-30.762,-27.344,-1.953,-14.648
1738233862.198,-3.906,-28.320,-30.273,-28.809,30.273
1738233862.201,-16.602,-35.156,-29.297,-37.598,-272.949
1738233862.205,-42.969,-51.758,-36.133,-30.273,-177.734
1738233862.209,-31.738,-49.316,-41.992,-26.855,65.430
1738233862.213,-9.277,-33.203,-37.109,-38.574,-155.273
1738233862.217,-10.254,-36.621,-33.203,-27.832,-334.473
1738233862.220,-18.066,-52.246,-33.691,-5.859,-241.211
1738233862.224,-40.039,-64.941,-34.180,-5.371,219.238
1738233862.228,-33.691,-41.016,-32.715,-14.160,215.332
1738233862.232,-9.766,-21.973,-29.785,-20.996,-195.312
1738233862.236,-4.883,-31.738,-33.203,-28.320,-203.125
1738233862.240,-13.672,-35.645,-34.668,-17.578,92.285
1738233862.244,-48.828,-41.992,-40.527,-15.625,104.004
1738233862.247,-54.688,-33.691,-47.363,-46.387,-230.469
1738233862.251,-15.137,-28.809,-40.039,-54.688,-220.215
1738233862.255,-0.977,-30.762,-41.016,-33.203,257.324
1738233862.259,-9.766,-22.949,-45.898,-29.785,-48.828
1738233862.263,-38.574,-40.039,-41.016,-25.879,-301.270
1738233862.265,-46.387,-40.039,-35.156,-34.668,-171.387
1738233862.269,-10.742,-23.438,-33.203,-37.598,-242.676
1738233862.273,5.859,-24.902,-33.203,-9.766,-284.180
1738233862.277,-3.418,-28.809,-32.227,-11.719,-176.270
1738233862.281,-40.039,-41.504,-34.668,-29.785,-34.180
1738233862.285,-66.406,-46.387,-35.645,-12.207,5.371
1738233862.289,-36.133,-36.133,-36.133,-37.109,1.953
1738233862.292,-5.859,-32.715,-36.133,-64.453,43.945
1738233862.296,-0.488,-41.016,-35.645,-51.758,456.543
1738233862.300,-26.855,-42.969,-40.527,-47.363,603.516
1738233862.304,-48.828,-36.621,-43.457,-36.133,-85.938
1738233862.308,-19.043,-26.855,-43.945,-55.176,-257.812
1738233862.311,-0.977,-23.926,-41.016,-43.945,220.215
1738233862.315,-6.348,-19.043,-41.504,-6.348,65.918
1738233862.319,-23.926,-34.180,-43.945,-17.578,-210.449
1738233862.323,-51.758,-50.781,-42.480,-35.156,-186.035
1738233862.327,-36.621,-36.133,-36.133,-36.133,-226.074
1738233862.331,-0.488,-21.973,-29.785,-15.625,-26.855
1738233862.335,1.465,-20.996,-32.715,-8.789,104.980
1738233862.338,-12.695,-29.297,-38.574,-8.789,178.223
1738233862.342,-42.969,-48.340,-38.574,-16.113,695.312
1738233862.346,-45.410,-30.273,-38.086,-52.734,261.230
1738233862.350,-9.766,-14.160,-35.156,-34.668,-300.293
1738233862.354,3.418,-23.926,-35.156,-19.043,-110.840
1738233862.445,-12.695,-24.414,-34.668,-32.227,-110.840
1738233862.449,-44.922,-35.645,-34.668,-36.621,-232.422
1738233862.453,-45.410,-37.109,-33.691,-41.992,-232.910
1738233862.457,-12.695,-21.973,-33.203,-29.785,-138.184
1738233862.461,-0.977,-18.555,-40.039,-24.414,-99.609
1738233862.465,-4.395,-24.414,-33.691,-3.418,8.789
1738233862.469,-37.109,-39.551,-27.344,4.395,77.148
1738233862.472,-42.480,-47.363,-29.785,-21.484,494.629
1738233862.476,-7.812,-26.855,-27.832,-0.488,691.895
1738233862.480,0.977,-13.184,-29.297,20.508,-17.090
1738233862.484,-2.930,-24.414,-33.691,-15.625,-96.680
1738233862.488,-27.832,-33.691,-35.645,-37.109,153.320
1738233862.449,-45.898,-29.297,-40.039,-22.949,-125.488
1738233862.453,-16.602,-17.578,-40.039,-12.695,-281.738
1738233862.457,-5.371,-20.996,-32.227,-18.066,-198.730
1738233862.461,-4.395,-33.691,-30.273,-15.137,-105.957
1738233862.465,5.859,-41.992,-38.086,2.930,-166.016
1738233862.469,-51.270,-43.945,-39.551,-38.574,-128.418
1738233862.473,-76.172,-28.320,-29.785,-70.312,85.449
1738233862.476,-43.945,-12.207,-20.996,-53.223,19.531
1738233862.480,-48.828,-9.766,-16.602,-55.176,-186.523
1738233862.484,-87.891,-17.090,-20.996,-103.027,-237.305
1738233862.488,-120.605,-31.250,-30.762,-127.441,-104.492
1738233862.492,-101.074,-9.766,-29.297,-98.145,-100.586
1738233862.456,-84.961,0.977,-32.227,-79.590,-119.141
1738233862.460,-101.074,-10.742,-36.133,-108.398,-21.973
1738233862.464,-107.422,-18.555,-38.086,-133.789,41.504
1738233862.468,-130.859,-18.066,-48.828,-136.230,-26.855
1738233862.472,-123.535,-12.695,-42.480,-125.000,-205.078
1738233862.476,-79.590,-13.672,-37.598,-95.703,-59.570
1738233862.480,-58.105,-17.090,-41.016,-74.219,218.750
1738233862.483,-58.594,-20.996,-40.039,-64.941,58.594
1738233862.487,-84.961,-33.203,-37.598,-54.199,-68.359
1738233862.491,-83.496,-32.715,-38.086,-53.223,-78.125
1738233862.495,-56.152,-28.320,-36.133,-33.203,1.953
1738233862.499,-49.316,-22.949,-34.180,-25.879,-54.688
1738233862.491,-47.852,-26.855,-37.109,-57.129,-157.227
1738233862.495,-65.430,-45.410,-36.133,-69.336,-76.660
1738233862.499,-69.336,-38.086,-34.668,-60.547,63.477
1738233862.503,-39.062,-23.438,-37.109,-51.758,-17.578
1738233862.507,-33.203,-27.832,-31.738,-23.438,-124.023
1738233862.511,-37.598,-32.715,-28.320,11.230,79.590
1738233862.515,-53.711,-45.898,-33.691,-3.906,716.309
1738233862.518,-54.199,-41.016,-30.762,-47.852,802.246
1738233862.522,-15.625,-16.602,-25.879,-53.711,624.023
1738233862.526,-12.695,-8.301,-30.762,-19.531,307.129
1738233862.530,-22.949,-16.602,-37.598,-2.441,-210.449
1738233862.534,-34.668,-27.832,-39.062,-15.137,-280.762
1738233862.565,-49.316,-26.367,-42.969,-40.039,-248.047
1738233862.569,-24.414,-20.508,-39.062,-59.082,-118.652
1738233862.573,-5.859,-18.066,-39.551,-35.156,-70.312
1738233862.577,-12.207,-20.020,-41.992,-12.207,-194.824
1738233862.595,2.441,-15.625,-34.180,-47.852,-258.789
1738233862.599,4.883,-13.184,-32.227,-20.508,-100.098
1738233862.603,-13.184,-15.625,-33.691,-21.973,-145.020
1738233862.607,-33.203,-36.621,-32.715,-11.230,-197.266
1738233862.611,-11.230,-37.598,-35.645,13.672,-138.672
1738233862.615,-8.301,-8.301,-41.504,-22.461,77.637
1738233862.619,-33.203,-0.977,-43.945,-60.547,12.695
1738233862.622,-18.555,-16.113,-43.457,-36.133,-129.395
1738233862.626,-47.363,-27.344,-48.828,-35.156,31.738
1738233862.630,-61.523,-25.879,-46.875,-49.316,0.488
1738233862.634,-14.648,-9.766,-45.898,-56.641,-187.012
1738233862.638,-18.066,-4.883,-44.922,-77.148,-216.309
1738233862.641,-28.320,-25.879,-38.574,-59.570,16.602
1738233862.645,-41.016,-41.992,-39.551,-33.691,550.781
1738233862.649,-48.828,-24.902,-40.527,-32.715,175.293
1738233862.653,-17.090,-16.602,-37.598,-45.898,-240.234
1738233862.657,-0.977,-28.320,-36.621,-50.781,-4.395
1738233862.661,-11.230,-32.227,-37.598,-37.109,37.109
1738233862.665,-29.785,-35.156,-37.598,-28.320,-28.320
1738233862.668,-43.945,-33.203,-35.645,-32.715,-81.543
1738233862.672,-16.113,-29.297,-34.668,-23.926,314.941
1738233862.676,-2.441,-23.438,-32.227,-0.977,577.148
1738233862.680,-11.719,-14.160,-32.227,-8.789,68.848
1738233862.684,-24.414,-26.855,-26.367,-19.043,-141.113
1738233862.685,-41.992,-39.551,-32.715,-26.367,56.641
1738233862.689,-29.297,-21.484,-41.016,-37.598,-143.555
1738233862.693,-7.812,-15.625,-33.203,-31.250,-275.391
1738233862.697,-5.859,-21.484,-31.738,-29.297,-187.012
1738233862.701,-24.414,-28.320,-33.203,-31.738,-117.188
1738233862.705,-46.875,-39.062,-31.250,-22.949,-6.836
1738233862.709,-26.855,-30.762,-33.691,-26.367,-22.949
1738233862.712,3.906,-22.461,-32.227,-24.902,-5.859
1738233862.716,5.859,-27.344,-33.691,-20.020,328.125
1738233862.720,-11.230,-24.902,-41.504,-18.066,21.484
1738233862.724,-31.738,-34.668,-38.574,-9.277,-253.906
1738233862.728,-21.973,-30.762,-30.273,-23.438,-151.855
1738233862.731,-3.418,-19.531,-31.250,-36.621,-145.508
1738233862.735,1.953,-20.996,-31.250,-23.926,-122.070
1738233862.739,-8.301,-29.297,-35.645,-7.324,-186.523
1738233862.743,-32.227,-42.480,-38.086,-20.508,-18.066
1738233862.747,-30.762,-31.738,-35.156,-34.180,-15.625
1738233862.751,-4.883,-23.438,-31.738,-22.461,-144.531
1738233862.755,2.930,-24.902,-28.320,-38.086,16.113
1738233862.758,-2.930,-34.668,-30.762,-57.617,311.523
1738233862.762,-33.691,-41.016,-30.273,-45.898,350.586
1738233862.766,-49.316,-33.203,-31.738,-36.621,-89.355
1738233862.770,-16.113,-24.902,-34.180,-18.555,-242.676
1738233862.774,-1.465,-31.738,-32.227,-2.930,194.336
1738233862.790,-19.531,-28.809,-37.109,-2.930,76.660
1738233862.794,-42.480,-39.551,-36.621,7.324,-270.996
1738233862.798,-57.129,-49.805,-35.156,-2.441,-217.773
1738233862.802,-26.367,-30.273,-34.180,-15.137,-73.730
1738233862.806,-6.348,-19.531,-32.227,-22.949,-46.387
1738233862.810,-18.555,-27.832,-35.645,-31.250,-67.383
1738233862.814,-37.598,-41.016,-36.621,-52.246,122.559
1738233862.817,-58.105,-52.246,-41.016,-60.059,472.168
1738233862.821,-38.086,-23.438,-42.480,-52.246,154.785
1738233862.825,-20.508,-15.137,-38.086,-38.574,-260.254
1738233862.829,-26.367,-29.785,-38.086,-28.320,-108.887
1738233862.833,-37.109,-32.715,-38.086,-28.320,-93.750
1738233862.820,-21.484,-32.715,-41.016,4.883,-238.281
1738233862.824,2.441,-24.902,-37.598,19.531,-254.883
1738233862.828,-9.766,-21.973,-32.227,-20.508,-87.891
1738233862.832,-15.137,-30.762,-34.668,-44.434,-95.703
1738233862.836,-6.836,-49.316,-36.133,-26.367,-220.703
1738233862.840,-24.902,-67.383,-37.598,10.254,-60.059
1738233862.844,-13.184,-63.965,-32.227,0.977,125.000
1738233862.847,37.109,-56.641,-27.832,12.207,16.113
1738233862.851,34.668,-76.660,-28.320,45.410,26.855
1738233862.855,15.137,-102.051,-22.949,37.598,-54.199
1738233862.859,0.488,-132.812,-18.555,38.086,265.137
1738233862.863,0.977,-138.184,-19.043,59.570,650.879
1738233862.865,25.879,-118.164,-20.020,56.152,111.816
1738233862.869,34.668,-126.465,-15.625,19.043,-217.285
1738233862.873,27.832,-137.695,-16.113,16.602,-124.512
1738233862.877,-6.348,-145.020,-20.996,26.367,-192.871
1738233862.881,-15.625,-135.254,-20.020,32.715,-291.016
1738233862.885,16.602,-120.117,-18.555,38.574,-41.504
1738233862.889,23.438,-115.723,-12.695,14.648,315.918
1738233862.892,20.996,-109.863,-15.625,-11.719,-27.344
1738233862.896,-2.441,-118.652,-20.508,1.465,-224.609
1738233862.900,-13.184,-113.281,-17.090,11.719,-4.395
1738233862.904,10.254,-87.402,-15.625,14.160,297.852
1738233862.908,15.625,-63.477,-14.648,17.578,-32.227
1738233862.926,5.859,-64.453,-17.578,7.812,-301.270
1738233862.930,-14.160,-78.125,-16.113,4.883,-139.648
1738233862.934,-28.809,-72.754,-19.531,11.230,-141.602
1738233862.938,-9.277,-52.246,-22.461,17.578,-268.066
1738233862.942,10.742,-47.852,-19.531,20.508,-235.840
1738233862.946,10.742,-49.805,-17.578,10.742,1.465
1738233862.950,-3.418,-47.363,-17.578,0.977,18.066
1738233862.953,-32.715,-61.035,-21.484,5.859,-31.738
1738233862.957,-20.020,-66.406,-21.973,4.883,-20.508
1738233862.961,14.648,-64.453,-22.461,9.277,253.418
1738233862.965,7.324,-62.012,-26.855,0.000,500.488
1738233862.969,-18.066,-60.059,-31.250,-5.859,-8.789
1738233862.973,-42.969,-74.219,-26.367,5.371,-242.676
1738233862.977,-28.809,-60.547,-27.344,-16.602,-12.695
1738233862.981,-0.977,-41.992,-33.203,-20.996,-127.441
1738233862.985,-0.488,-49.316,-27.344,9.766,-250.488
1738233862.989,-15.137,-56.152,-25.879,17.090,-243.164
1738233862.993,-43.945,-65.918,-36.133,-18.066,-69.336
1738233862.997,-40.527,-51.758,-38.086,-35.645,9.766
1738233863.000,-14.648,-34.180,-35.156,-24.414,-228.516
1738233863.004,-10.742,-39.551,-30.762,-8.301,-120.605
1738233863.008,-18.555,-45.410,-30.273,-5.371,108.887
1738233863.012,-38.086,-48.340,-31.250,-9.766,-160.156
1738233863.016,-46.387,-42.969,-27.344,-16.602,-295.898
1738233863.015,-14.648,-33.203,-26.855,-20.508,-152.832
1738233863.019,4.883,-28.320,-33.203,-16.113,-77.148
1738233863.023,-1.953,-31.738,-35.645,-19.043,-232.422
1738233863.027,-23.438,-48.828,-29.297,-6.348,-248.535
1738233863.031,-39.062,-53.223,-25.391,-1.953,-78.613
1738233863.035,-5.371,-32.715,-25.391,-15.625,-57.617
1738233863.039,15.137,-25.879,-31.250,-8.789,-102.051
1738233863.042,4.883,-32.715,-27.832,-3.418,-109.863
1738233863.046,-10.742,-47.852,-26.367,-7.812,319.336
1738233863.050,-25.879,-44.434,-33.203,-14.648,687.500
1738233863.054,-6.836,-20.020,-31.250,-18.066,371.582
1738233863.058,6.836,-20.996,-32.715,-5.859,-134.277
1738233863.060,1.465,-33.203,-39.062,-7.812,-118.652
1738233863.064,-18.555,-31.738,-39.551,-23.926,-216.797
1738233863.068,-38.574,-34.180,-37.598,-27.832,-353.027
1738233863.072,-30.762,-27.344,-32.715,-14.648,-240.234
1738233863.076,-8.789,-13.184,-29.297,-5.859,-98.145
1738233863.080,-0.488,-17.090,-39.551,-12.695,-78.613
1738233863.084,-26.855,-29.297,-39.551,-26.367,-70.801
1738233863.087,-55.664,-38.086,-28.320,-12.207,-48.828
1738233863.091,-33.691,-34.668,-26.367,-13.184,270.996
1738233863.095,0.488,-14.160,-34.668,-62.500,-20.508
1738233863.099,0.000,-16.602,-36.621,-69.336,-340.332
1738233863.103,-16.602,-30.762,-34.180,-53.711,-204.590
1738233863.105,-44.434,-36.133,-38.086,-49.805,-187.012
1738233863.109,-44.922,-24.902,-42.480,-43.457,-270.996
1738233863.113,-13.672,-21.973,-37.598,-27.832,-318.848
1738233863.117,-7.812,-29.297,-35.156,-6.836,-164.551
1738233863.121,-19.531,-26.855,-36.621,-18.555,-144.043
1738233863.125,-37.598,-37.598,-37.598,-32.227,-142.578
1738233863.129,-39.551,-37.109,-35.156,-26.367,-44.922
1738233863.132,-5.371,-29.785,-38.086,-15.137,393.066
1738233863.136,9.277,-21.973,-41.992,0.000,739.746
1738233863.140,-5.859,-7.812,-36.621,-20.508,54.199
1738233863.144,-24.902,-25.879,-37.598,-44.922,-264.160
1738233863.148,-37.598,-34.668,-38.086,-55.664,-99.121
1738233863.150,-32.227,-14.648,-39.062,-57.617,-292.969
1738233863.154,-23.438,-17.578,-43.945,-19.531,-344.727
1738233863.158,-22.949,-30.273,-36.133,1.465,-255.371
1738233863.162,-40.527,-26.367,-30.273,-17.578,-166.992
1738233863.166,-61.035,-26.367,-34.180,-36.621,-165.527
1738233863.170,-35.156,-19.531,-35.156,-47.363,-210.938
1738233863.174,-12.695,-16.602,-33.691,-47.363,78.613
1738233863.177,-20.996,-20.996,-35.645,-61.035,408.691
1738233863.181,-37.109,-20.508,-36.133,-56.641,108.398
1738233863.185,-59.082,-33.203,-34.180,-50.293,-74.219
1738233863.189,-41.992,-27.344,-32.227,-43.945,4.883
1738233863.193,-9.277,-13.184,-33.691,-17.578,44.434
1738233863.196,0.000,-6.348,-33.203,-17.090,-220.215
1738233863.200,-10.742,-20.020,-28.320,-25.879,-289.551
1738233863.204,-30.273,-38.574,-32.715,-43.457,-73.242
1738233863.208,-16.602,-26.855,-34.180,-53.711,-125.000
1738233863.212,8.301,-22.949,-21.484,-28.809,-244.629
1738233863.216,28.320,-33.203,-18.555,10.254,-49.316
1738233863.220,40.527,-29.785,-31.738,32.227,451.660
1738233863.223,-8.789,-19.531,-40.039,-7.324,455.566
1738233863.227,-58.105,-15.137,-41.016,-43.945,-22.461
1738233863.231,-48.340,-13.184,-37.598,-29.785,-143.066
1738233863.235,-25.879,-18.066,-41.992,-28.809,169.922
1738233863.239,-50.293,-18.066,-47.852,-54.688,87.402
1738233863.240,-108.398,-21.484,-49.805,-87.402,-210.938
1738233863.244,-111.328,-24.902,-50.293,-112.305,-134.277
1738233863.248,-70.801,-10.742,-41.504,-108.887,-22.949
1738233863.252,-76.172,-8.789,-40.527,-121.094,-128.418
1738233863.256,-97.168,-17.578,-41.992,-139.648,-235.352
1738233863.260,-108.887,-33.691,-38.086,-120.117,0.000
1738233863.264,-111.816,-40.039,-39.062,-104.980,687.988
1738233863.267,-85.938,-19.043,-42.969,-107.910,329.102
1738233863.271,-60.059,-20.996,-45.898,-90.820,-257.812
1738233863.275,-58.594,-36.621,-48.340,-76.660,-134.277
1738233863.279,-72.266,-47.852,-46.875,-70.312,-98.633
1738233863.283,-73.242,-40.527,-41.992,-65.918,-155.762
1738233863.316,-41.992,-21.973,-42.969,-51.270,-197.754
1738233863.320,-30.762,-25.391,-41.016,-24.902,37.598
1738233863.324,-36.621,-24.902,-40.527,-39.551,44.434
1738233863.328,-39.062,-27.344,-39.551,-51.758,-201.172
1738233863.332,-56.152,-36.621,-37.109,-34.668,-132.812
1738233863.336,-37.598,-31.250,-32.715,-16.602,233.398
1738233863.340,-12.695,-16.602,-32.227,-23.438,243.164
1738233863.343,-11.719,-16.113,-37.598,-47.363,-29.785
1738233863.347,-24.902,-37.109,-38.574,-31.738,11.230
1738233863.351,-49.805,-51.270,-43.945,-26.367,301.758
1738233863.355,-40.039,-27.344,-46.387,-46.875,190.918
1738233863.359,-23.438,-12.695,-44.434,-46.875,-211.914
1738233863.345,-20.996,-24.902,-45.898,-20.020,-129.395
1738233863.349,-15.137,-35.156,-48.340,-20.508,297.852
1738233863.353,-38.574,-35.645,-49.316,-54.199,119.629
1738233863.357,-44.922,-33.691,-44.922,-59.082,-217.285
1738233863.361,-20.508,-27.832,-42.480,-33.691,-56.152
1738233863.365,-14.648,-28.809,-40.527,-18.066,159.668
1738233863.369,-26.367,-37.109,-34.668,-25.879,31.250
1738233863.372,-48.828,-47.852,-43.945,-33.691,-132.324
1738233863.376,-41.504,-47.363,-47.363,-22.949,-96.680
1738233863.380,-15.137,-35.645,-44.922,-2.930,-52.734
1738233863.384,-10.254,-35.156,-43.457,-8.301,-117.676
1738233863.388,-13.184,-38.574,-42.969,-30.273,-185.547
1738233863.380,-27.344,-53.223,-44.434,-39.062,72.266
1738233863.384,-26.855,-57.129,-42.969,-35.156,581.055
1738233863.388,2.930,-29.297,-41.016,-35.156,136.230
1738233863.392,1.953,-28.320,-41.504,-20.020,-257.812
1738233863.396,-7.812,-39.062,-39.062,-8.789,-112.305
1738233863.400,-30.273,-43.945,-41.992,-10.742,-12.695
1738233863.404,-50.781,-45.410,-44.922,-20.996,21.973
1738233863.407,-29.297,-36.621,-44.434,-23.926,43.457
1738233863.411,-15.625,-40.527,-43.945,-9.277,359.375
1738233863.415,-20.020,-38.574,-44.434,-13.184,184.082
1738233863.419,-40.527,-42.480,-47.363,-4.395,-177.246
1738233863.423,-41.504,-52.734,-43.457,23.926,-65.918
1738233863.435,1.465,-44.922,-38.086,-2.930,164.062
1738233863.439,-5.371,-20.996,-30.762,-53.223,-69.336
1738233863.443,-47.852,-19.043,-28.320,-74.707,-232.422
1738233863.447,-69.824,-36.621,-31.738,-71.777,-154.785
1738233863.451,-82.520,-44.434,-30.273,-51.270,454.102
1738233863.455,-82.031,-24.414,-33.203,-73.242,776.367
1738233863.459,-68.848,-13.672,-29.785,-88.379,82.031
1738233863.462,-69.336,-21.973,-30.762,-71.777,-89.844
1738233863.466,-98.145,-29.785,-32.227,-62.500,265.137
1738233863.470,-104.492,-31.738,-34.180,-60.547,110.352
1738233863.474,-81.543,-28.809,-44.922,-76.660,-228.027
1738233863.478,-50.293,-29.297,-44.922,-76.172,-212.402
1738233863.480,-34.180,-23.438,-41.992,-57.129,-127.441
1738233863.484,-41.992,-25.879,-40.527,-51.758,-239.746
1738233863.488,-66.406,-46.875,-38.086,-49.316,-251.465
1738233863.492,-63.477,-47.363,-39.062,-54.199,-99.609
1738233863.496,-35.156,-37.109,-41.016,-61.035,-183.594
1738233863.500,-25.391,-34.180,-45.898,-55.176,-190.430
1738233863.504,-32.715,-36.133,-41.016,-38.086,-87.891
1738233863.507,-52.734,-52.734,-35.645,-18.066,327.148
1738233863.511,-47.363,-39.062,-41.992,-33.691,560.059
1738233863.515,-25.879,-17.090,-43.457,-50.293,-92.773
1738233863.519,-12.207,-28.809,-43.457,-42.480,-250.977
1738233863.523,-22.461,-46.387,-42.480,-35.645,323.242
1738233863.525,-48.340,-46.875,-39.062,-32.227,125.488
1738233863.529,-50.293,-42.969,-43.945,-29.297,-254.395
1738233863.533,-25.879,-40.039,-45.410,-39.062,-194.824
1738233863.537,-11.230,-35.645,-42.969,-36.133,-147.949
1738233863.541,-7.812,-37.598,-44.922,-24.902,-173.340
1738233863.545,-27.344,-49.316,-40.039,-31.738,-65.430
1738233863.549,-49.805,-56.152,-35.645,-27.344,146.973
1738233863.552,-27.344,-41.992,-38.574,-15.625,372.070
1738233863.556,-9.766,-22.461,-37.598,-26.367,10.742
1738233863.560,-16.602,-33.203,-39.062,-37.109,-297.852
1738233863.564,-32.715,-56.152,-51.758,-45.410,-179.199
1738233863.568,-49.316,-67.383,-40.039,-43.457,-101.562
1738233863.571,-28.809,-52.734,-29.785,-38.086,-180.176
1738233863.575,-2.441,-36.133,-32.227,-26.367,-213.867
1738233863.579,-1.465,-48.340,-29.297,-20.508,89.355
1738233863.583,-6.348,-45.898,-30.273,-14.648,45.410
1738233863.615,16.113,-32.715,-36.133,-25.391,-329.102
1738233863.619,8.789,-75.195,-29.297,3.418,-193.848
1738233863.623,20.996,-76.660,-42.480,27.344,-92.285
1738233863.627,49.316,-40.039,-53.711,2.441,-141.602
1738233863.631,32.227,-26.855,-58.594,-33.203,-118.652
1738233863.635,14.648,-46.875,-53.711,-28.320,91.309
1738233863.639,0.000,-77.148,-51.758,-25.391,607.910
1738233863.642,-57.617,-75.195,-54.688,-52.734,304.199
1738233863.646,-86.426,-71.289,-45.898,-84.961,-245.117
1738233863.650,-103.516,-65.918,-55.664,-96.191,-166.992
1738233863.654,-144.043,-67.871,-68.359,-93.262,-114.258
1738233863.658,-152.344,-58.105,-65.430,-103.027,-219.238
1738233863.690,-187.500,-44.434,-60.547,-138.184,-257.324
1738233863.694,-202.637,-60.059,-40.039,-161.621,-73.730
1738233863.698,-183.105,-48.340,-32.715,-191.895,-48.340
1738233863.702,-190.430,-13.184,-46.875,-219.238,-244.629
1738233863.706,-186.035,-32.227,-56.152,-224.121,-221.680
1738233863.710,-194.824,-62.012,-56.641,-229.980,60.547
1738233863.714,-189.941,-47.852,-51.270,-220.215,68.359
1738233863.717,-163.086,-29.785,-58.594,-208.984,-96.680
1738233863.721,-141.602,-24.414,-66.895,-205.078,-107.910
1738233863.725,-102.539,-48.340,-73.242,-162.109,319.336
1738233863.729,-105.957,-63.477,-81.055,-149.414,592.773
1738233863.733,-133.301,-52.734,-86.914,-160.156,3.906
1738233863.735,-96.191,-61.035,-94.238,-141.602,-330.566
1738233863.739,-47.852,-85.938,-108.887,-121.582,-220.703
1738233863.743,-10.254,-86.914,-117.188,-109.375,-250.488
1738233863.747,1.465,-77.637,-109.863,-101.074,-254.395
1738233863.751,-32.227,-66.895,-101.074,-74.707,-241.211
1738233863.755,-65.918,-44.922,-100.586,-55.176,-146.484
1738233863.759,-66.895,-32.715,-118.652,-67.871,-94.727
1738233863.762,-53.223,-28.809,-133.789,-61.523,-193.359
1738233863.766,-26.855,-25.391,-126.465,-41.504,-123.535
1738233863.770,-8.789,-40.039,-128.906,-46.875,-60.059
1738233863.774,-2.930,-36.133,-132.324,-49.805,-229.980
1738233863.778,5.371,-20.996,-127.441,-38.086,-314.453
1738233863.765,28.320,-16.602,-132.812,-32.715,-24.902
1738233863.769,30.762,0.977,-143.555,-35.645,540.527
1738233863.773,-7.812,8.301,-151.367,-63.965,83.496
1738233863.777,0.977,0.977,-132.324,-63.477,-401.855
1738233863.781,6.348,26.367,-107.910,-35.156,-171.875
1738233863.785,4.395,39.551,-114.258,-23.926,46.387
1738233863.789,14.160,32.715,-127.930,-26.367,137.695
1738233863.792,9.277,38.574,-123.535,-35.645,-40.527
1738233863.796,15.137,54.199,-124.023,-48.828,-88.867
1738233863.800,16.113,77.148,-128.906,-50.781,-160.645
1738233863.804,27.832,72.266,-122.070,-24.414,-183.594
1738233863.808,22.461,66.895,-110.840,-13.672,-29.297
1738233863.810,10.254,60.059,-108.398,-27.344,470.215
1738233863.814,-0.977,62.500,-102.051,-61.523,444.824
1738233863.818,1.465,76.172,-88.867,-41.016,-77.148
1738233863.822,44.434,92.773,-85.938,4.395,-108.887
1738233863.826,48.828,86.914,-83.008,-5.859,-13.184
1738233863.830,28.809,40.527,-67.871,-34.668,-28.320
1738233863.834,16.602,32.715,-60.059,-65.918,-247.559
1738233863.837,-8.301,30.762,-48.340,-36.133,-267.578
1738233863.841,-28.809,13.672,-24.414,14.648,345.703
1738233863.845,-38.086,21.484,-19.531,16.113,176.270
1738233863.849,-24.902,18.555,-23.438,-6.348,-172.363
1738233863.853,-2.441,6.836,-18.066,-44.434,-296.875
1738233863.856,-2.930,14.648,-7.812,-21.973,-424.316
1738233863.860,-1.465,13.184,-1.465,20.996,-199.219
1738233863.864,9.766,6.836,-1.465,10.742,65.918
1738233863.868,8.301,-2.441,-0.488,-11.230,208.008
1738233863.872,10.254,-5.371,-4.395,-50.293,-147.949
1738233863.876,-10.742,-3.906,-0.488,-27.344,-339.844
1738233863.880,-47.363,-1.953,16.602,30.762,-33.691
1738233863.883,-44.922,-6.348,24.414,35.156,484.863
1738233863.887,-43.945,-7.324,30.273,25.391,845.215
1738233863.891,-41.016,-0.977,27.832,-34.180,-66.895
1738233863.895,-17.090,-13.184,21.973,-38.086,-646.973
1738233863.899,-9.277,1.465,29.297,33.691,-232.422
1738233863.900,-14.648,12.695,34.668,42.969,8.789
1738233863.904,-23.926,-8.301,19.531,14.648,31.738
1738233863.908,-14.648,-23.438,11.719,-27.344,-191.895
1738233863.912,-5.371,-11.719,14.160,-45.410,-551.270
1738233863.916,-16.602,4.395,8.789,8.789,-351.074
1738233863.920,-11.230,3.906,8.789,35.645,113.281
1738233863.924,-1.953,-7.324,15.625,23.438,402.344
1738233863.927,16.602,-18.555,13.672,-12.207,580.566
1738233863.931,18.555,-11.719,14.648,-58.105,-171.875
1738233863.935,-19.043,-2.441,21.973,2.930,-498.535
1738233863.939,-42.480,-7.324,29.785,63.965,-18.555
1738233863.943,-35.645,-17.578,28.320,48.340,108.887
1738233863.945,-20.508,-14.648,41.992,1.465,-91.797
1738233863.949,-20.996,-5.371,53.223,-33.691,-537.598
1738233863.953,-35.156,1.465,39.062,2.930,-430.664
1738233863.957,-37.598,0.488,29.297,40.527,4.395
1738233863.961,-29.297,-0.977,36.621,38.574,151.367
1738233863.965,-11.719,-9.766,42.969,3.418,134.277
1738233863.969,8.789,-21.484,45.410,-44.922,16.602
1738233863.972,-10.742,-11.230,41.504,-14.648,-25.879
1738233863.976,-4.883,-4.395,25.879,36.133,38.574
1738233863.980,2.441,-6.836,23.926,49.316,207.520
1738233863.984,-5.859,-4.395,29.785,32.227,318.359
1738233863.988,1.465,-7.324,24.414,-41.992,-313.477
1738233863.990,0.000,-4.883,29.297,-30.273,-794.922
1738233863.994,-22.461,-10.254,36.621,43.945,-212.891
1738233863.998,-21.973,-16.602,38.086,52.246,447.754
1738233864.002,-4.395,1.953,42.969,34.180,289.551
1738233864.006,-2.441,-12.207,42.480,-29.785,-402.832
1738233864.010,2.441,-23.438,37.598,-49.316,-543.945
1738233864.014,-10.254,-6.348,31.250,33.691,243.164
1738233864.017,-6.348,-0.488,28.809,77.148,287.109
1738233864.021,0.977,-1.953,27.832,58.594,106.934
1738233864.025,-1.953,-19.043,29.297,-15.137,62.012
1738233864.029,-16.113,-23.926,22.949,-82.031,-248.535
1738233864.033,-34.668,-4.883,23.438,-6.836,-290.039
1738233864.050,-14.648,-3.418,27.832,66.406,-9.277
1738233864.054,-25.391,-18.555,23.926,33.203,291.992
1738233864.058,-30.273,-29.297,22.461,-37.109,99.121
1738233864.062,-20.508,-30.762,19.043,-68.848,-699.219
1738233864.066,-25.391,-15.137,20.020,5.371,-568.848
1738233864.070,-19.531,-18.066,22.949,50.781,187.500
1738233864.074,-15.625,-25.879,20.996,37.598,307.129
1738233864.077,-24.414,-25.879,21.484,-1.953,-7.812
1738233864.081,-13.672,-27.832,9.766,-55.176,-572.266
1738233864.085,17.090,-18.066,8.301,0.977,-210.938
1738233864.089,36.621,1.953,14.648,66.895,539.062
1738233864.093,20.508,7.324,1.953,61.523,211.426
1738233864.095,-8.301,-20.020,-0.488,18.066,78.125
1738233864.099,-3.906,-32.227,7.812,-51.270,-277.344
1738233864.103,-10.254,-3.418,6.348,-15.137,-677.734
1738233864.107,-34.180,1.953,5.371,53.223,-254.395
1738233864.111,-44.434,-13.672,7.324,42.969,117.676
1738233864.115,-34.180,-24.902,7.324,3.906,144.531
1738233864.119,-23.926,-27.344,0.977,-57.129,-308.105
1738233864.122,-17.578,-14.648,-0.977,-32.715,-723.633
1738233864.126,-12.207,-13.672,10.254,41.992,-183.105
1738233864.130,-6.836,-20.996,14.160,49.316,633.301
1738233864.134,15.137,-1.465,9.766,25.391,312.500
1738233864.138,21.973,0.488,0.000,-47.363,-479.004
1738233864.141,-18.066,-15.137,-3.906,-58.105,-677.246
1738233864.145,-46.387,-11.230,5.371,13.672,-221.191
1738233864.149,-33.203,-22.461,4.883,35.156,215.332
1738233864.153,-26.367,-13.184,1.953,6.348,269.043
1738233864.157,-16.602,-26.855,-2.441,-70.312,-68.848
1738233864.161,6.836,-31.738,-3.418,-80.078,-451.172
1738233864.165,-15.137,-3.906,2.441,0.000,-160.156
1738233864.168,-28.320,-6.836,4.395,22.461,209.961
1738233864.172,-15.137,-11.719,6.348,13.184,579.590
1738233864.176,-34.668,-18.555,-8.789,-54.199,215.332
1738233864.180,-23.438,-26.367,-16.113,-75.684,-759.766
1738233864.184,-4.395,-9.277,-11.719,2.441,-489.258
1738233864.185,-38.574,-3.418,-16.113,18.066,482.910
1738233864.189,-82.520,-1.465,-20.020,-30.762,510.742
1738233864.193,-85.938,-11.719,-27.832,-87.891,-114.746
1738233864.197,-77.148,-23.926,-23.438,-134.766,-687.988
