timestamps,TP9,AF7,AF8,TP10,Right AUX
1737973550.155,999.512,999.512,-286.621,999.512,-1000.000
1737973550.159,999.512,999.512,-530.273,999.512,-1000.000
1737973550.163,230.957,248.047,-456.055,224.121,-365.723
1737973550.167,-1000.000,-1000.000,-800.293,-1000.000,999.512
1737973550.171,-200.684,-198.730,-354.492,-197.266,178.711
1737973550.175,999.512,998.535,-189.941,998.535,-1000.000
1737973550.179,999.512,999.512,-580.566,999.512,-1000.000
1737973550.182,265.625,393.555,-476.074,323.730,-501.953
1737973550.186,-1000.000,-1000.000,-743.652,-1000.000,999.512
1737973550.190,-200.195,-310.059,-309.570,-206.055,403.320
1737973550.194,997.559,973.145,-127.930,999.512,-961.426
1737973550.198,999.512,999.512,-628.418,999.512,-1000.000
1737973550.200,426.758,558.105,-448.730,523.926,-554.199
1737973550.204,-1000.000,-1000.000,-665.039,-1000.000,997.559
1737973550.208,-361.816,-550.781,-552.734,-451.172,489.746
1737973550.212,999.512,925.781,-295.898,981.445,-964.844
1737973550.216,918.457,996.094,-588.867,963.379,-1000.000
1737973550.220,326.172,516.602,-398.926,459.473,-689.453
1737973550.224,-989.746,-875.000,-615.234,-932.617,719.727
1737973550.227,-543.945,-776.855,-632.324,-652.344,713.867
1737973550.231,909.180,740.723,-183.594,875.977,-834.473
1737973550.235,999.512,999.512,-477.051,999.512,-1000.000
1737973550.239,844.727,928.223,-437.988,826.660,-1000.000
1737973550.243,-648.438,-397.949,-541.504,-536.133,218.750
1737973550.245,-837.402,-1000.000,-623.535,-953.125,999.512
1737973550.249,747.559,458.008,-243.164,606.934,-504.395
1737973550.253,999.512,999.512,-606.445,999.512,-1000.000
1737973550.257,999.512,999.512,-464.355,999.512,-1000.000
1737973550.261,-223.145,-76.172,-473.633,-164.551,99.609
1737973550.265,-1000.000,-1000.000,-719.238,-1000.000,999.512
1737973550.269,421.387,178.711,-295.898,281.738,-291.992
1737973550.272,999.512,999.512,-496.094,999.512,-1000.000
1737973550.276,999.512,999.512,-411.133,999.512,-1000.000
1737973550.280,22.461,143.555,-414.551,33.203,-210.449
1737973550.284,-1000.000,-1000.000,-773.438,-1000.000,999.512
1737973550.288,131.348,-15.625,-266.113,75.684,-29.297
1737973550.291,999.512,999.512,-381.836,999.512,-1000.000
1737973550.295,999.512,999.512,-510.254,999.512,-1000.000
1737973550.299,237.305,235.840,-426.758,238.770,-266.113
1737973550.303,-1000.000,-1000.000,-719.727,-1000.000,999.512
1737973550.307,-101.562,-187.988,-273.926,-159.668,134.277
1737973550.311,999.512,999.512,-353.516,999.512,-1000.000
1737973550.315,999.512,999.512,-571.289,999.512,-1000.000
1737973550.318,231.445,225.586,-378.906,227.051,-257.812
1737973550.322,-1000.000,-1000.000,-689.941,-1000.000,999.512
1737973550.326,-203.125,-198.242,-404.785,-202.637,160.156
1737973550.330,999.512,999.512,-331.543,999.512,-1000.000
1737973550.334,999.512,999.512,-592.773,999.512,-1000.000
1737973550.335,223.633,312.988,-457.520,224.121,-400.391
1737973550.339,-1000.000,-1000.000,-768.555,-1000.000,999.512
1737973550.343,-194.336,-241.699,-449.707,-192.871,207.520
1737973550.347,994.141,987.793,-249.023,995.117,-1000.000
1737973550.351,999.512,999.512,-597.656,999.512,-1000.000
1737973550.355,403.320,509.766,-459.473,426.758,-598.145
1737973550.359,-1000.000,-1000.000,-706.055,-1000.000,986.328
1737973550.362,-223.145,-424.805,-355.469,-320.801,536.621
1737973550.366,999.512,948.730,-115.234,974.609,-907.227
1737973550.370,999.512,999.512,-651.367,999.512,-1000.000
1737973550.374,571.777,690.430,-420.898,605.957,-705.078
1737973550.378,-1000.000,-882.324,-587.891,-1000.000,830.078
1737973550.380,-449.707,-666.016,-611.816,-549.316,607.422
1737973550.384,952.148,849.121,-319.824,919.922,-916.016
1737973550.388,999.512,999.512,-629.883,999.512,-1000.000
1737973550.392,743.164,869.629,-492.676,845.215,-1000.000
1737973550.396,-819.824,-534.668,-597.656,-648.438,289.062
1737973550.400,-727.051,-982.910,-650.879,-836.426,908.203
1737973550.404,822.266,557.617,-206.055,746.094,-671.875
1737973550.407,999.512,999.512,-473.145,999.512,-1000.000
1737973550.411,936.523,999.512,-504.395,999.512,-1000.000
1737973550.415,-439.453,-185.059,-535.156,-247.559,45.410
1737973550.419,-984.375,-1000.000,-662.109,-1000.000,999.512
1737973550.423,591.309,280.762,-318.848,420.898,-435.547
1737973550.426,999.512,999.512,-577.637,999.512,-1000.000
1737973550.430,999.512,999.512,-437.500,999.512,-1000.000
1737973550.434,-90.332,60.547,-400.391,-0.977,-17.578
1737973550.438,-1000.000,-1000.000,-726.074,-1000.000,999.512
1737973550.442,237.305,73.730,-309.082,130.859,-178.223
1737973550.446,999.512,999.512,-441.895,999.512,-1000.000
1737973550.450,999.512,999.512,-440.918,999.512,-1000.000
1737973550.453,131.348,218.750,-409.668,181.152,-256.348
1737973550.457,-1000.000,-1000.000,-762.207,-1000.000,999.512
1737973550.461,15.625,-131.348,-244.141,-66.895,94.238
1737973550.465,999.512,999.512,-279.785,999.512,-1000.000
1737973550.469,999.512,999.512,-549.316,999.512,-1000.000
1737973550.471,237.793,229.492,-432.129,233.887,-280.273
1737973550.475,-1000.000,-1000.000,-755.859,-1000.000,999.512
1737973550.479,-192.871,-200.684,-344.238,-202.637,156.738
1737973550.483,999.512,999.512,-327.148,999.512,-1000.000
1737973550.487,999.512,999.512,-586.914,999.512,-1000.000
1737973550.491,224.609,261.719,-409.668,224.121,-277.832
1737973550.495,-1000.000,-1000.000,-728.027,-1000.000,999.512
1737973550.498,-197.754,-208.496,-452.637,-197.266,163.086
1737973550.502,997.559,995.117,-342.773,998.535,-1000.000
1737973550.506,999.512,999.512,-567.871,999.512,-1000.000
1737973550.510,323.242,423.828,-440.430,323.730,-522.461
1737973550.514,-1000.000,-1000.000,-726.074,-1000.000,999.512
1737973550.530,-207.031,-343.750,-490.723,-206.055,328.613
1737973550.534,999.512,965.820,-227.539,999.512,-1000.000
1737973550.538,999.512,999.512,-552.246,999.512,-1000.000
1737973550.542,502.441,599.121,-517.578,523.926,-736.328
1737973550.546,-1000.000,-996.582,-709.961,-1000.000,838.867
1737973550.550,-403.809,-562.988,-550.781,-436.035,570.312
1737973550.554,957.031,903.809,-286.133,949.707,-920.898
1737973550.557,999.512,999.512,-636.230,999.512,-1000.000
1737973550.561,697.754,804.199,-408.691,737.305,-820.801
1737973550.565,-899.414,-687.988,-531.738,-846.191,692.383
1737973550.569,-598.145,-833.984,-629.395,-669.434,724.609
1737973550.573,916.016,725.586,-293.945,882.812,-841.797
1737973550.576,999.512,999.512,-611.328,999.512,-1000.000
1737973550.580,920.410,977.051,-436.035,939.453,-1000.000
1737973550.584,-527.832,-293.457,-515.625,-438.965,191.406
1737973550.588,-852.539,-1000.000,-687.988,-984.375,962.891
1737973550.592,752.930,434.570,-181.152,591.797,-601.074
1737973550.596,999.512,999.512,-437.012,999.512,-1000.000
1737973550.600,999.512,999.512,-433.105,999.512,-1000.000
1737973550.603,-151.855,-0.488,-450.195,-89.844,-116.699
1737973550.607,-1000.000,-1000.000,-638.672,-1000.000,999.512
1737973550.611,418.945,157.227,-153.320,237.793,-118.652
1737973550.615,999.512,999.512,-459.473,999.512,-1000.000
1737973550.619,999.512,999.512,-455.078,999.512,-1000.000
1737973550.622,71.777,186.035,-351.074,131.348,-135.742
1737973550.626,-1000.000,-1000.000,-730.469,-1000.000,999.512
1737973550.630,125.000,-42.969,-293.945,16.113,-20.508
1737973550.634,999.512,999.512,-371.094,999.512,-1000.000
1737973550.638,999.512,999.512,-485.352,999.512,-1000.000
1737973550.642,237.305,234.863,-412.598,239.258,-266.113
1737973550.646,-1000.000,-1000.000,-798.828,-1000.000,999.512
1737973550.649,-101.562,-196.289,-345.215,-202.637,144.043
1737973550.653,999.512,999.512,-253.906,999.512,-1000.000
1737973550.657,999.512,999.512,-546.387,999.512,-1000.000
1737973550.661,231.445,224.609,-532.227,224.121,-323.730
1737973550.665,-1000.000,-1000.000,-803.711,-1000.000,999.512
1737973550.666,-203.125,-197.754,-444.336,-200.684,177.246
1737973550.670,999.512,999.023,-382.324,999.512,-1000.000
1737973550.674,999.512,999.512,-631.836,999.512,-1000.000
1737973550.678,223.633,330.078,-502.930,257.812,-357.910
1737973550.682,-1000.000,-1000.000,-782.715,-1000.000,999.512
1737973550.686,-193.359,-269.043,-482.910,-198.242,238.281
1737973550.690,994.141,979.492,-303.711,997.559,-1000.000
1737973550.693,999.512,999.512,-533.691,999.512,-1000.000
1737973550.697,424.805,534.180,-327.148,438.965,-661.621
1737973550.701,-1000.000,-1000.000,-665.527,-1000.000,931.641
1737973550.705,-301.758,-460.449,-538.086,-373.535,430.664
1737973550.709,980.469,939.453,-234.375,953.613,-997.070
1737973550.710,999.512,999.512,-582.031,999.512,-1000.000
1737973550.714,606.445,733.398,-441.895,601.562,-924.805
1737973550.718,-1000.000,-825.195,-628.906,-1000.000,577.637
1737973550.722,-523.438,-705.566,-575.684,-565.918,669.922
1737973550.726,931.152,831.543,-264.160,909.180,-890.625
1737973550.730,999.512,999.512,-607.910,999.512,-1000.000
1737973550.734,835.938,909.668,-420.410,844.238,-939.453
1737973550.737,-679.688,-464.844,-520.020,-647.949,454.102
1737973550.741,-781.738,-995.605,-667.480,-837.402,913.086
1737973550.745,801.270,556.152,-307.617,748.535,-657.227
1737973550.749,999.512,999.512,-540.039,999.512,-1000.000
1737973550.753,999.512,999.512,-386.230,999.512,-1000.000
1737973550.756,-282.715,-119.141,-526.367,-222.656,2.930
1737973550.760,-1000.000,-1000.000,-751.465,-1000.000,999.512
1737973550.764,558.594,256.348,-223.633,421.875,-399.414
1737973550.768,999.512,999.512,-435.059,999.512,-1000.000
1737973550.772,999.512,999.512,-420.410,999.512,-1000.000
1737973550.776,-25.879,102.539,-432.617,22.949,-155.273
1737973550.780,-1000.000,-1000.000,-734.863,-1000.000,999.512
1737973550.783,223.145,23.438,-152.832,131.348,70.801
1737973550.787,999.512,999.512,-366.699,999.512,-1000.000
1737973550.791,999.512,999.512,-490.723,999.512,-1000.000
1737973550.795,143.555,222.168,-425.781,237.793,-215.332
1737973550.799,-1000.000,-1000.000,-831.543,-1000.000,999.512
1737973550.804,11.230,-165.527,-336.426,-101.074,137.695
1737973550.808,999.512,999.512,-341.309,999.512,-1000.000
1737973550.812,999.512,999.512,-471.680,999.512,-1000.000
1737973550.816,238.770,226.562,-392.578,231.934,-281.738
1737973550.820,-1000.000,-1000.000,-866.699,-1000.000,999.512
1737973550.824,-203.125,-200.195,-386.719,-202.637,163.086
1737973550.828,999.512,999.512,-210.938,999.512,-1000.000
1737973550.831,999.512,999.512,-552.246,999.512,-1000.000
1737973550.835,223.633,273.926,-501.953,224.121,-402.344
1737973550.839,-1000.000,-1000.000,-779.785,-1000.000,999.512
1737973550.843,-197.754,-209.961,-395.020,-194.824,187.500
1737973550.847,997.559,995.117,-237.793,996.094,-1000.000
1737973550.846,999.512,999.512,-554.199,999.512,-1000.000
1737973550.850,323.242,457.520,-436.035,394.043,-444.336
1737973550.854,-1000.000,-1000.000,-745.605,-1000.000,999.512
1737973550.858,-206.055,-378.418,-549.805,-315.918,312.012
1737973550.862,999.512,957.031,-279.297,972.168,-999.512
1737973550.866,999.512,999.512,-511.230,999.512,-1000.000
1737973550.870,522.949,622.559,-349.609,558.594,-722.168
1737973550.873,-1000.000,-963.867,-690.918,-1000.000,845.703
1737973550.877,-436.035,-620.605,-614.746,-504.883,591.797
1737973550.881,949.219,865.234,-234.375,922.363,-916.016
1737973550.885,999.512,999.512,-593.262,999.512,-1000.000
1737973550.889,735.352,811.035,-470.215,733.887,-970.215
1737973550.906,-847.656,-652.344,-617.188,-814.941,454.102
1737973550.910,-669.434,-895.020,-655.273,-758.301,794.922
1737973550.914,882.324,656.250,-266.113,787.598,-784.180
1737973550.918,999.512,999.512,-582.031,999.512,-1000.000
1737973550.922,941.895,993.652,-397.461,931.152,-1000.000
1737973550.926,-448.730,-239.258,-477.051,-426.270,273.438
1737973550.930,-949.707,-1000.000,-720.215,-1000.000,999.512
1737973550.933,637.207,379.883,-272.461,526.855,-535.645
1737973550.937,999.512,999.512,-457.520,999.512,-1000.000
1737973550.941,999.512,999.512,-333.496,999.512,-1000.000
1737973550.945,-103.027,26.367,-458.008,-88.379,-118.652
1737973550.949,-1000.000,-1000.000,-807.617,-1000.000,999.512
1737973550.951,309.082,113.281,-255.371,214.355,-225.098
1737973550.955,999.512,999.512,-394.531,999.512,-1000.000
1737973550.959,999.512,999.512,-466.309,999.512,-1000.000
1737973550.963,84.961,193.359,-453.125,129.883,-238.281
1737973550.967,-1000.000,-1000.000,-806.152,-1000.000,999.512
1737973550.971,80.078,-101.074,-256.836,16.113,68.848
1737973550.975,999.512,999.512,-295.410,999.512,-1000.000
1737973550.978,999.512,999.512,-504.395,999.512,-1000.000
1737973550.982,235.840,231.445,-378.418,239.258,-260.742
1737973550.986,-1000.000,-1000.000,-759.277,-1000.000,999.512
1737973550.990,-121.582,-201.660,-374.023,-202.637,142.090
1737973550.994,999.512,999.512,-280.273,999.512,-1000.000
1737973550.995,999.512,999.512,-513.672,999.512,-1000.000
1737973550.999,229.980,238.770,-441.406,224.121,-355.469
1737973551.003,-1000.000,-1000.000,-854.980,-1000.000,999.512
1737973551.007,-201.172,-197.754,-428.711,-197.266,178.711
1737973551.011,999.512,998.047,-180.176,998.535,-1000.000
1737973551.015,999.512,999.512,-527.832,999.512,-1000.000
1737973551.019,256.836,381.836,-463.867,323.730,-459.961
1737973551.022,-1000.000,-1000.000,-810.059,-1000.000,999.512
1737973551.026,-198.730,-298.828,-381.836,-206.055,375.000
1737973551.030,996.582,975.586,-97.168,999.512,-966.309
1737973551.034,999.512,999.512,-592.773,999.512,-1000.000
1737973551.038,426.270,554.688,-375.488,523.438,-547.363
1737973551.040,-1000.000,-1000.000,-645.508,-1000.000,999.512
1737973551.044,-320.801,-504.883,-607.422,-435.547,445.312
1737973551.048,970.215,917.480,-257.324,941.406,-967.285
1737973551.052,999.512,999.512,-568.848,999.512,-1000.000
1737973551.056,568.359,706.055,-416.992,628.418,-855.469
1737973551.060,-906.738,-746.094,-617.676,-819.824,555.176
1737973551.064,-368.164,-669.922,-651.855,-471.680,656.250
1737973551.067,901.367,750.000,-159.180,854.004,-801.270
1737973551.071,999.512,999.512,-451.660,999.512,-1000.000
1737973551.075,850.586,937.988,-444.824,884.766,-1000.000
1737973551.079,-647.949,-397.461,-561.035,-535.156,194.824
1737973551.083,-837.402,-1000.000,-730.469,-964.355,943.359
1737973551.085,747.559,486.816,-215.820,597.656,-619.141
1737973551.089,999.512,999.512,-466.309,999.512,-1000.000
1737973551.093,999.512,999.512,-389.648,999.512,-1000.000
1737973551.097,-223.145,-73.242,-395.996,-165.527,59.570
1737973551.101,-1000.000,-1000.000,-740.723,-1000.000,999.512
1737973551.105,421.387,211.914,-182.617,305.176,-273.926
1737973551.109,999.512,999.512,-326.660,999.512,-1000.000
1737973551.112,999.512,999.512,-333.008,999.512,-1000.000
1737973551.116,21.973,135.742,-372.070,28.320,-203.613
1737973551.120,-1000.000,-1000.000,-867.188,-1000.000,999.512
1737973551.124,129.395,-22.949,-301.270,80.566,-27.344
1737973551.128,999.512,999.512,-356.445,999.512,-1000.000
1737973551.131,999.512,999.512,-514.160,999.512,-1000.000
1737973551.135,212.402,227.051,-474.121,236.816,-260.254
1737973551.139,-1000.000,-1000.000,-838.867,-1000.000,999.512
1737973551.143,-97.656,-186.523,-296.387,-134.766,132.324
1737973551.175,-1000.000,-1000.000,-836.426,-1000.000,999.512
1737973551.179,-196.777,-231.445,-447.754,-193.359,211.426
1737973551.183,996.582,992.188,-64.453,994.629,-1000.000
1737973551.187,999.512,999.512,-489.746,999.512,-1000.000
1737973551.191,351.562,471.680,-455.566,426.758,-537.109
1737973551.195,-1000.000,-1000.000,-796.875,-1000.000,999.512
1737973551.199,-251.465,-432.129,-497.559,-320.801,533.691
1737973551.202,988.281,934.570,-124.023,975.098,-896.973
1737973551.206,999.512,999.512,-601.562,999.512,-1000.000
1737973551.210,520.508,619.141,-408.691,602.539,-632.324
1737973551.214,-1000.000,-953.125,-678.711,-1000.000,923.828
1737973551.218,-473.633,-668.457,-710.449,-547.852,613.281
1737973551.220,929.688,827.637,-263.184,916.992,-893.555
1737973551.224,999.512,999.512,-548.340,999.512,-1000.000
1737973551.228,733.398,833.496,-382.812,814.453,-996.582
1737973551.232,-845.703,-605.957,-625.488,-688.965,371.094
1737973551.236,-669.922,-931.641,-778.809,-828.613,895.508
1737973551.240,881.836,615.723,-34.180,738.281,-681.641
1737973551.244,999.512,999.512,-302.734,999.512,-1000.000
1737973551.247,938.965,988.281,-315.918,955.078,-1000.000
1737973551.251,-438.965,-233.887,-466.309,-339.844,91.309
1737973551.255,-984.375,-1000.000,-767.578,-1000.000,999.512
1737973551.259,591.309,331.543,-28.320,418.945,-241.699
1737973551.263,999.512,999.512,-312.012,999.512,-1000.000
1737973551.280,999.512,999.512,-350.586,999.512,-1000.000
1737973551.284,-89.844,24.902,-407.227,-57.617,-26.367
1737973551.288,-1000.000,-1000.000,-896.973,-1000.000,999.512
1737973551.292,237.305,80.566,-235.840,133.789,-142.578
1737973551.296,999.512,999.512,-275.391,999.512,-1000.000
1737973551.300,999.512,999.512,-408.691,999.512,-1000.000
1737973551.304,130.859,190.918,-437.012,133.301,-215.332
1737973551.307,-1000.000,-1000.000,-981.445,-1000.000,999.512
1737973551.311,15.625,-143.555,-254.883,-57.617,102.051
1737973551.315,999.512,999.512,-57.129,999.512,-1000.000
1737973551.319,999.512,999.512,-450.684,999.512,-1000.000
1737973551.323,238.770,228.516,-487.793,233.887,-259.766
1737973551.325,-1000.000,-1000.000,-956.055,-1000.000,999.512
1737973551.329,-203.125,-202.637,-340.332,-202.637,166.016
1737973551.333,999.512,999.512,-121.094,999.512,-1000.000
1737973551.337,999.512,999.512,-478.027,999.512,-1000.000
1737973551.341,223.633,224.121,-437.012,224.121,-273.438
1737973551.345,-1000.000,-1000.000,-978.516,-1000.000,999.512
1737973551.349,-200.195,-196.777,-458.496,-197.754,166.016
1737973551.352,999.512,998.047,-10.254,998.535,-1000.000
1737973551.356,999.512,999.512,-352.051,999.512,-1000.000
1737973551.360,284.668,349.609,-346.680,323.730,-452.148
1737973551.364,-1000.000,-1000.000,-948.730,-1000.000,999.512
1737973551.368,-200.684,-318.359,-616.699,-206.055,281.250
1737973551.370,997.559,962.891,76.660,999.512,-1000.000
1737973551.374,999.512,999.512,-303.223,999.512,-1000.000
1737973551.378,494.629,540.039,-455.566,523.438,-654.297
1737973551.382,-1000.000,-1000.000,-851.074,-1000.000,934.082
1737973551.386,-334.473,-525.879,-668.457,-436.035,561.035
1737973551.390,987.305,908.691,93.750,949.707,-916.504
1737973551.394,999.512,999.512,-277.344,999.512,-1000.000
1737973551.397,719.727,753.418,-278.320,732.910,-829.590
1737973551.401,-886.719,-779.785,-592.773,-851.074,694.824
1737973551.405,-575.684,-764.160,-796.387,-667.969,698.242
1737973551.409,934.082,787.109,26.855,878.906,-876.465
1737973551.413,999.512,999.512,-208.496,999.512,-1000.000
1737973551.416,927.246,946.289,-212.402,912.109,-1000.000
1737973551.420,-520.996,-369.629,-511.230,-481.445,178.223
1737973551.424,-851.562,-1000.000,-897.461,-978.516,999.512
1737973551.428,747.559,459.961,32.227,588.867,-510.254
1737973551.432,999.512,999.512,-97.656,999.512,-1000.000
1737973551.436,999.512,999.512,-285.156,999.512,-1000.000
1737973551.440,-223.145,-93.750,-473.633,-135.254,0.000
1737973551.443,-1000.000,-1000.000,-918.945,-1000.000,999.512
1737973551.447,420.898,145.508,-111.816,235.352,-54.199
1737973551.451,999.512,999.512,-195.312,999.512,-1000.000
1737973551.455,999.512,999.512,-358.398,999.512,-1000.000
1737973551.459,22.461,79.590,-449.707,41.504,-116.699
1737973551.460,-1000.000,-1000.000,-1000.000,-1000.000,999.512
1737973551.464,130.859,-36.621,-245.117,26.855,29.785
1737973551.468,999.512,999.512,-81.543,999.512,-1000.000
1737973551.472,999.512,999.512,-335.938,999.512,-1000.000
1737973551.476,232.422,232.910,-408.691,239.258,-262.695
1737973551.480,-1000.000,-1000.000,-1000.000,-1000.000,999.512
1737973551.484,-54.688,-191.895,-285.156,-202.637,146.484
1737973551.487,999.512,999.512,278.809,999.512,-1000.000
1737973551.491,999.512,999.512,-149.902,999.512,-1000.000
1737973551.495,234.863,225.098,-460.938,224.121,-282.715
1737973551.499,-1000.000,-1000.000,-1000.000,-1000.000,999.512
1737973551.503,-203.125,-199.707,-433.594,-202.637,170.898
1737973551.505,999.512,999.512,30.273,999.512,-1000.000
1737973551.509,999.512,999.512,-377.930,999.512,-1000.000
1737973551.513,223.633,278.809,-450.684,224.121,-341.797
1737973551.517,-1000.000,-1000.000,-1000.000,-1000.000,999.512
1737973551.521,-193.359,-249.512,-573.730,-193.359,214.355
1737973551.525,993.652,981.445,109.375,995.117,-1000.000
1737973551.529,999.512,999.512,-173.828,999.512,-1000.000
1737973551.532,419.922,467.773,-216.797,427.734,-531.250
1737973551.536,-1000.000,-1000.000,-832.520,-1000.000,999.512
1737973551.540,-221.191,-426.758,-681.641,-350.586,396.973
1737973551.544,999.512,937.988,141.602,961.914,-979.004
1737973551.548,999.512,999.512,-208.008,999.512,-1000.000
1737973551.550,611.328,642.578,-268.066,603.516,-750.000
1737973551.554,-1000.000,-935.059,-693.359,-1000.000,808.594
1737973551.558,-456.543,-661.621,-753.418,-556.152,630.371
1737973551.562,967.773,843.262,116.211,915.039,-888.672
1737973551.566,999.512,999.512,-204.102,999.512,-1000.000
1737973551.570,861.816,845.215,-265.137,845.215,-905.273
1737973551.574,-682.617,-576.172,-574.219,-647.949,523.926
1737973551.577,-696.777,-969.727,-872.559,-836.914,887.207
1737973551.581,894.531,568.359,-50.781,746.582,-683.105
1737973551.585,991.699,999.512,-195.801,999.512,-1000.000
1737973551.589,999.512,985.352,-244.629,999.512,-1000.000
1737973551.593,-315.918,-216.797,-513.184,-246.094,67.383
1737973551.610,-994.141,-1000.000,-959.961,-1000.000,999.512
1737973551.614,595.215,262.207,-67.383,419.922,-360.840
1737973551.618,999.512,999.512,-56.152,999.512,-1000.000
1737973551.622,999.512,999.512,-258.301,999.512,-1000.000
1737973551.626,0.488,43.457,-424.805,-10.254,-136.230
1737973551.630,-1000.000,-1000.000,-967.773,-1000.000,999.512
1737973551.634,230.469,51.270,-122.559,130.859,-43.457
1737973551.637,999.512,999.512,-7.812,999.512,-1000.000
1737973551.641,999.512,999.512,-285.645,999.512,-1000.000
1737973551.645,181.641,209.473,-368.652,168.945,-231.934
1737973551.649,-1000.000,-1000.000,-1000.000,-1000.000,999.512
1737973551.653,9.277,-157.715,-272.949,-91.309,116.211
1737973551.655,999.512,999.512,54.199,999.512,-1000.000
1737973551.659,999.512,999.512,-294.922,999.512,-1000.000
1737973551.663,237.305,227.051,-374.512,231.934,-259.277
1737973551.667,-1000.000,-1000.000,-1000.000,-1000.000,999.512
1737973551.671,-181.152,-201.660,-394.043,-202.637,166.504
1737973551.675,999.512,999.512,115.723,999.512,-1000.000
1737973551.679,999.512,999.512,-291.992,999.512,-1000.000
1737973551.682,225.098,240.234,-406.738,224.121,-350.098
1737973551.686,-1000.000,-1000.000,-1000.000,-1000.000,999.512
1737973551.690,-196.777,-196.289,-356.934,-197.754,229.980
1737973551.694,997.070,997.070,266.113,998.535,-1000.000
1737973551.698,999.512,999.512,-237.793,999.512,-1000.000
1737973551.700,341.797,416.504,-355.957,330.078,-449.707
1737973551.704,-1000.000,-1000.000,-906.738,-1000.000,999.512
1737973551.708,-209.473,-336.426,-587.891,-302.246,324.219
1737973551.712,999.512,965.820,161.621,967.773,-993.652
1737973551.716,999.512,999.512,-179.199,999.512,-1000.000
1737973551.720,519.531,578.613,-229.980,517.578,-670.898
1737973551.724,-1000.000,-1000.000,-748.535,-1000.000,910.156
1737973551.727,-355.957,-570.312,-771.973,-522.949,552.734
1737973551.731,983.887,892.090,157.715,904.297,-939.941
1737973551.735,999.512,999.512,-117.676,999.512,-1000.000
1737973551.739,743.164,766.602,-318.848,725.098,-946.289
1737973551.743,-859.375,-735.840,-658.691,-828.125,496.582
1737973551.745,-581.543,-839.844,-811.523,-738.770,799.316
1737973551.749,937.988,704.590,36.133,807.129,-781.738
1737973551.753,991.699,999.512,-218.262,999.512,-1000.000
1737973551.757,957.520,945.801,-268.066,932.617,-1000.000
1737973551.761,-475.098,-345.703,-510.254,-429.199,233.398
1737973551.765,-859.375,-1000.000,-908.691,-1000.000,999.512
1737973551.769,754.883,397.461,-32.227,541.016,-455.078
1737973551.772,999.512,999.512,-115.234,999.512,-1000.000
1737973551.776,999.512,999.512,-62.500,999.512,-1000.000
1737973551.780,-121.582,-54.199,-254.883,-91.309,26.855
1737973551.784,-1000.000,-1000.000,-1000.000,-1000.000,999.512
1737973551.788,419.434,129.883,-141.113,237.793,-208.496
1737973551.790,999.512,999.512,-28.809,999.512,-1000.000
1737973551.794,999.512,999.512,-339.844,999.512,-1000.000
1737973551.798,122.070,146.973,-471.191,131.348,-214.355
1737973551.802,-1000.000,-1000.000,-1000.000,-1000.000,999.512
1737973551.806,118.652,-84.961,-253.418,16.113,57.617
1737973551.810,999.512,999.512,26.367,999.512,-1000.000
1737973551.814,999.512,999.512,-284.180,999.512,-1000.000
1737973551.817,237.305,232.422,-354.492,239.258,-261.719
1737973551.821,-1000.000,-1000.000,-1000.000,-1000.000,999.512
1737973551.825,-116.211,-217.285,-306.641,-217.285,156.250
1737973551.829,999.512,999.512,152.344,999.512,-1000.000
1737973551.833,963.867,979.492,-280.762,979.004,-1000.000
1737973551.835,50.293,42.969,-404.297,42.480,-209.473
1737973551.839,-1000.000,-1000.000,-1000.000,-1000.000,999.512
1737973551.843,-197.266,-195.801,-427.246,-199.219,170.898
1737973551.847,993.652,993.652,250.488,997.070,-1000.000
1737973551.851,999.512,999.512,-182.617,999.512,-1000.000
1737973551.855,294.922,329.102,-389.648,255.371,-401.367
1737973551.859,-1000.000,-1000.000,-994.141,-1000.000,999.512
1737973551.862,-205.078,-261.719,-461.914,-198.242,332.031
1737973551.866,999.512,983.398,146.484,997.070,-976.074
1737973551.870,999.512,999.512,-343.750,999.512,-1000.000
1737973551.874,425.781,495.605,-354.492,430.664,-540.039
1737973551.878,-1000.000,-1000.000,-841.797,-1000.000,999.512
1737973551.880,-272.461,-472.656,-724.121,-417.480,451.172
1737973551.884,992.188,923.340,77.637,931.641,-966.309
1737973551.888,999.512,999.512,-222.168,999.512,-1000.000
1737973551.892,630.371,689.941,-277.832,579.102,-879.395
1737973551.896,-918.457,-827.637,-658.691,-941.895,637.695
1737973551.900,-377.441,-644.043,-776.367,-549.316,698.730
1737973551.904,960.449,824.707,217.285,852.539,-878.418
1737973551.907,999.512,999.512,54.688,999.512,-1000.000
1737973551.911,881.348,909.668,-157.227,830.078,-1000.000
1737973551.915,-655.762,-466.309,-534.180,-613.281,262.695
1737973551.919,-701.172,-1000.000,-873.047,-959.473,937.988
1737973551.923,899.414,536.133,32.227,588.867,-632.812
1737973551.926,980.957,999.512,-43.457,999.512,-1000.000
1737973551.930,999.512,999.512,-168.457,999.512,-1000.000
1737973551.934,-256.348,-157.227,-425.781,-201.660,74.219
1737973551.938,-998.535,-1000.000,-951.660,-1000.000,999.512
1737973551.942,594.727,225.586,-133.789,294.434,-327.637
1737973551.946,999.512,999.512,-78.125,999.512,-1000.000
1737973551.950,999.512,999.512,-166.016,999.512,-1000.000
1737973551.953,12.207,66.406,-361.328,23.926,-170.898
1737973551.957,-1000.000,-1000.000,-1000.000,-1000.000,999.512
1737973551.961,232.422,17.090,-166.992,83.496,-43.457
1737973551.965,999.512,999.512,69.336,999.512,-1000.000
1737973551.969,999.512,999.512,-284.180,999.512,-1000.000
1737973551.970,232.422,222.656,-392.578,234.375,-259.277
1737973551.974,-1000.000,-1000.000,-1000.000,-1000.000,999.512
1737973551.978,0.977,-173.828,-241.211,-101.074,128.418
1737973551.982,999.512,999.512,188.477,999.512,-1000.000
1737973551.986,999.512,999.512,-241.699,999.512,-1000.000
1737973551.990,238.770,226.074,-368.164,231.934,-258.789
1737973551.994,-1000.000,-1000.000,-1000.000,-1000.000,999.512
1737973551.997,-203.125,-200.684,-411.133,-202.637,165.527
1737973552.001,999.512,999.512,127.930,999.512,-1000.000
1737973552.005,999.512,999.512,-284.668,999.512,-1000.000
1737973552.009,223.633,259.277,-427.734,224.121,-370.117
1737973552.013,-1000.000,-1000.000,-1000.000,-1000.000,999.512
1737973552.030,-193.359,-213.379,-519.531,-194.824,204.590
1737973552.034,992.188,990.723,246.582,994.141,-1000.000
1737973552.038,999.512,999.512,-152.832,999.512,-1000.000
1737973552.042,401.367,425.293,-444.824,375.977,-511.230
1737973552.046,-1000.000,-1000.000,-934.570,-1000.000,995.605
1737973552.050,-133.301,-284.180,-606.445,-228.027,282.715
1737973552.054,997.070,946.777,173.340,960.938,-973.633
1737973552.057,999.512,999.512,-142.090,999.512,-1000.000
1737973552.061,610.352,629.395,-246.582,553.223,-689.941
1737973552.065,-1000.000,-970.215,-698.242,-1000.000,900.879
1737973552.069,-382.324,-583.496,-734.375,-536.133,560.059
1737973552.073,996.094,899.902,132.324,905.762,-946.777
1737973552.075,999.512,999.512,-103.027,999.512,-1000.000
1737973552.079,828.613,829.102,-184.082,739.258,-990.723
1737973552.083,-743.164,-638.184,-622.559,-787.109,416.016
1737973552.087,-629.883,-888.672,-866.699,-812.500,831.543
1737973552.091,920.410,666.504,64.941,731.934,-759.277
1737973552.095,999.512,999.512,-98.633,999.512,-1000.000
1737973552.099,952.148,964.844,-245.605,920.410,-1000.000
1737973552.102,-466.797,-287.598,-544.922,-405.273,137.695
1737973552.106,-887.207,-1000.000,-898.438,-1000.000,999.512
1737973552.110,718.262,331.543,-20.020,418.945,-263.672
1737973552.114,999.512,999.512,-180.664,999.512,-1000.000
1737973552.118,999.512,999.512,-280.273,999.512,-1000.000
1737973552.120,-122.070,-21.973,-416.992,-80.078,-11.719
1737973552.124,-1000.000,-1000.000,-1000.000,-1000.000,999.512
1737973552.128,419.922,104.492,-185.547,137.695,-168.457
1737973552.132,999.512,999.512,11.719,999.512,-1000.000
1737973552.136,999.512,999.512,-129.883,999.512,-1000.000
1737973552.140,125.000,196.777,-316.895,132.324,-239.746
1737973552.144,-1000.000,-1000.000,-1000.000,-1000.000,999.512
1737973552.147,118.164,-103.516,-233.398,-50.781,88.867
1737973552.151,999.512,999.512,286.133,999.512,-1000.000
1737973552.155,999.512,999.512,-97.168,999.512,-1000.000
1737973552.159,237.305,231.445,-413.086,234.375,-260.254
1737973552.163,-1000.000,-1000.000,-1000.000,-1000.000,999.512
1737973552.165,-101.562,-202.637,-301.270,-202.637,158.691
1737973552.169,999.512,999.512,116.211,999.512,-1000.000
1737973552.173,999.512,999.512,-312.500,999.512,-1000.000
1737973552.177,231.445,224.121,-392.090,224.121,-277.832
1737973552.211,999.512,999.512,-24.414,999.512,-1000.000
1737973552.215,431.152,472.656,-143.555,435.059,-565.918
1737973552.219,-1000.000,-1000.000,-799.316,-1000.000,944.336
1737973552.223,-339.355,-513.672,-672.363,-436.035,606.934
1737973552.227,988.770,916.504,211.426,945.801,-872.070
1737973552.231,999.512,999.512,-73.730,999.512,-1000.000
1737973552.235,744.629,743.164,-103.027,708.984,-848.145
1737973552.238,-859.863,-784.180,-599.609,-876.953,656.250
1737973552.242,-581.543,-792.969,-852.539,-662.598,730.957
1737973552.246,938.477,749.023,50.293,875.488,-844.238
1737973552.250,991.211,999.512,-87.402,999.512,-1000.000
1737973552.254,959.473,928.223,-125.488,889.648,-1000.000
1737973552.255,-482.422,-401.367,-502.930,-515.625,210.449
1737973552.259,-826.660,-1000.000,-943.359,-974.121,989.258
1737973552.263,790.527,466.309,-27.832,585.938,-569.336
1737973552.267,994.629,999.512,3.906,999.512,-1000.000
1737973552.271,999.512,999.512,-137.207,999.512,-1000.000
1737973552.275,-137.207,-81.543,-457.520,-165.039,-26.367
1737973552.279,-1000.000,-1000.000,-949.707,-1000.000,999.512
1737973552.282,495.605,171.387,-29.297,237.793,-89.355
1737973552.286,999.512,999.512,22.949,999.512,-1000.000
1737973552.290,999.512,999.512,-199.707,999.512,-1000.000
1737973552.294,91.309,128.906,-366.211,35.156,-183.105
1737973552.298,-1000.000,-1000.000,-1000.000,-1000.000,999.512
1737973552.300,187.012,-31.738,-230.469,27.832,46.875
1737973552.304,999.512,999.512,89.355,999.512,-1000.000
1737973552.308,999.512,999.512,-81.543,999.512,-1000.000
1737973552.312,213.867,216.797,-279.297,220.703,-244.141
1737973552.316,-1000.000,-1000.000,-1000.000,-1000.000,999.512
1737973552.320,71.289,-107.910,-216.309,-112.305,63.965
1737973552.324,999.512,995.605,303.711,994.141,-1000.000
1737973552.327,999.512,999.512,-97.656,999.512,-1000.000
1737973552.331,239.746,227.051,-376.465,226.562,-289.551
1737973552.335,-1000.000,-1000.000,-1000.000,-1000.000,999.512
1737973552.339,-202.637,-199.219,-392.578,-202.637,169.922
1737973552.343,999.512,999.512,139.160,999.512,-1000.000
1737973552.345,999.512,999.512,-260.254,999.512,-1000.000
1737973552.349,230.469,298.340,-386.719,223.633,-380.371
1737973552.353,-1000.000,-1000.000,-993.652,-1000.000,999.512
1737973552.357,-194.336,-241.699,-559.570,-193.359,212.891
1737973552.361,994.141,986.816,149.902,994.629,-1000.000
1737973552.365,999.512,999.512,-131.348,999.512,-1000.000
1737973552.369,419.922,472.168,-200.684,427.734,-534.180
1737973552.372,-1000.000,-1000.000,-806.152,-1000.000,999.512
1737973552.376,-221.191,-431.152,-709.473,-342.773,459.961
1737973552.380,999.512,937.012,208.496,965.332,-951.660
1737973552.384,999.512,999.512,-4.883,999.512,-1000.000
1737973552.388,611.328,657.715,-252.930,604.004,-810.059
1737973552.405,-1000.000,-920.898,-708.984,-1000.000,735.840
1737973552.409,-456.543,-663.574,-743.164,-549.316,654.297
1737973552.413,967.285,844.238,129.883,919.922,-888.672
1737973552.417,999.512,999.512,-195.801,999.512,-1000.000
1737973552.421,861.328,831.543,-313.965,845.703,-931.152
1737973552.425,-682.617,-581.055,-606.445,-647.949,465.332
1737973552.429,-696.777,-999.023,-899.902,-836.914,928.223
1737973552.432,894.043,520.508,-135.254,746.582,-632.812
1737973552.436,993.652,999.512,-288.574,999.512,-1000.000
1737973552.440,999.512,973.633,-274.414,999.512,-1000.000
1737973552.444,-325.684,-240.234,-497.070,-241.211,81.055
1737973552.448,-993.652,-1000.000,-1000.000,-1000.000,999.512
1737973552.450,596.191,248.047,-88.867,421.387,-345.215
1737973552.454,999.512,999.512,21.484,999.512,-1000.000
1737973552.458,999.512,999.512,-171.875,999.512,-1000.000
1737973552.462,-21.484,57.617,-351.074,-9.277,-154.785
1737973552.466,-1000.000,-1000.000,-965.820,-1000.000,999.512
1737973552.470,414.551,100.098,-86.914,217.773,-102.051
1737973552.474,999.512,999.512,235.840,999.512,-1000.000
1737973552.477,999.512,999.512,0.977,999.512,-1000.000
1737973552.481,234.863,221.680,-279.785,189.941,-249.512
1737973552.485,-1000.000,-1000.000,-1000.000,-1000.000,999.512
1737973552.489,37.598,-144.043,-261.719,-94.238,100.586
1737973552.493,999.512,999.512,95.215,999.512,-1000.000
1737973552.496,999.512,999.512,-304.199,999.512,-1000.000
1737973552.500,237.793,228.516,-419.434,231.934,-260.254
1737973552.504,-1000.000,-1000.000,-1000.000,-1000.000,999.512
1737973552.508,-165.527,-201.660,-412.598,-202.637,163.086
1737973552.512,999.512,999.512,279.785,999.512,-1000.000
1737973552.516,999.512,999.512,-42.480,999.512,-1000.000
1737973552.520,226.562,244.629,-338.379,224.121,-334.473
1737973552.523,-1000.000,-1000.000,-1000.000,-1000.000,999.512
1737973552.527,-196.289,-196.777,-365.234,-197.754,219.238
1737973552.531,996.094,997.070,325.195,998.535,-1000.000
1737973552.535,999.512,999.512,-156.738,999.512,-1000.000
1737973552.539,355.957,417.969,-339.355,329.102,-469.727
1737973552.540,-1000.000,-1000.000,-929.688,-1000.000,999.512
1737973552.544,-211.914,-340.332,-651.367,-294.922,295.898
1737973552.548,999.512,964.355,148.438,970.215,-1000.000
1737973552.552,999.512,999.512,-176.758,999.512,-1000.000
1737973552.556,520.020,557.129,-342.773,518.066,-675.293
1737973552.560,-1000.000,-1000.000,-812.012,-1000.000,906.250
1737973552.564,-360.352,-577.637,-783.691,-503.906,604.492
1737973552.567,980.469,878.418,123.047,914.551,-891.602
1737973552.571,999.512,999.512,-69.336,999.512,-1000.000
1737973552.575,726.562,704.102,-404.297,727.051,-889.648
1737973552.579,-876.953,-800.293,-792.969,-830.078,575.684
1737973552.583,-578.125,-856.934,-853.027,-732.910,802.246
1737973552.585,937.500,670.410,20.020,813.477,-774.414
1737973552.589,990.723,999.512,-160.645,999.512,-1000.000
1737973552.593,957.520,967.773,-183.594,935.059,-1000.000
1737973552.597,-475.098,-328.125,-453.613,-434.570,190.430
1737973552.601,-859.375,-1000.000,-906.250,-1000.000,999.512
1737973552.605,754.883,464.355,46.875,568.359,-517.578
1737973552.609,999.512,999.512,137.695,999.512,-1000.000
1737973552.612,999.512,999.512,266.113,999.512,-1000.000
1737973552.616,-121.582,-17.090,-146.484,-90.332,1.465
1737973552.620,-1000.000,-1000.000,-1000.000,-1000.000,999.512
1737973552.624,419.922,155.273,-108.887,237.793,-243.164
1737973552.628,999.512,999.512,55.176,999.512,-1000.000
1737973552.630,999.512,999.512,-244.141,999.512,-1000.000
1737973552.634,125.000,152.344,-419.922,131.348,-222.656
1737973552.638,-1000.000,-1000.000,-1000.000,-1000.000,999.512
1737973552.642,118.164,-90.332,-267.090,16.113,63.965
1737973552.646,999.512,999.512,41.016,999.512,-1000.000
1737973552.650,999.512,999.512,-242.676,999.512,-1000.000
1737973552.654,235.840,231.445,-321.289,239.258,-261.230
1737973552.657,-1000.000,-1000.000,-1000.000,-1000.000,999.512
1737973552.661,-88.867,-202.637,-269.043,-202.637,148.926
1737973552.665,999.512,999.512,309.570,999.512,-1000.000
1737973552.669,999.512,999.512,-11.719,999.512,-1000.000
1737973552.673,231.934,224.121,-225.098,224.121,-296.387
1737973552.675,-1000.000,-1000.000,-1000.000,-1000.000,999.512
1737973552.679,-198.730,-197.754,-416.016,-200.684,168.945
1737973552.683,999.023,999.023,319.824,999.512,-1000.000
1737973552.687,999.512,999.512,-116.211,999.512,-1000.000
1737973552.691,301.270,328.613,-418.457,258.789,-442.871
1737973552.695,-1000.000,-1000.000,-1000.000,-1000.000,999.512
1737973552.699,-206.055,-268.066,-533.203,-198.242,355.469
1737973552.702,999.512,981.445,180.176,996.582,-973.145
1737973552.706,999.512,999.512,-251.465,999.512,-1000.000
1737973552.710,423.828,477.539,-437.500,448.242,-546.387
1737973552.714,-1000.000,-1000.000,-918.945,-1000.000,999.512
1737973552.718,-283.203,-484.375,-709.961,-420.898,479.492
1737973552.720,988.281,913.086,83.496,934.570,-950.684
1737973552.724,999.512,999.512,-154.297,999.512,-1000.000
1737973552.728,631.348,676.270,-213.867,597.656,-861.816
1737973552.732,-992.188,-885.254,-724.609,-998.047,655.762
1737973552.736,-469.238,-708.984,-821.777,-637.695,703.125
1737973552.740,969.238,816.895,199.707,863.281,-871.094
1737973552.744,996.582,999.512,72.754,999.512,-1000.000
1737973552.747,897.949,905.762,-122.070,828.613,-1000.000
1737973552.751,-625.977,-474.121,-556.641,-616.699,260.254
1737973552.755,-704.590,-997.559,-858.398,-945.801,967.285
1737973552.759,898.926,549.805,79.590,606.445,-596.680
1737973552.763,981.934,999.512,-57.617,999.512,-1000.000
1737973552.780,999.512,999.512,-174.805,999.512,-1000.000
1737973552.784,-256.348,-166.504,-434.082,-205.078,66.895
1737973552.788,-998.535,-1000.000,-974.609,-1000.000,999.512
1737973552.792,594.727,235.352,-136.719,314.453,-331.543
1737973552.796,999.512,999.512,-4.883,999.512,-1000.000
1737973552.800,999.512,999.512,-6.348,999.512,-1000.000
1737973552.804,12.207,77.637,-259.766,22.461,-140.137
1737973552.807,-1000.000,-1000.000,-1000.000,-1000.000,999.512
1737973552.811,232.422,31.738,-152.344,101.562,-60.547
1737973552.815,999.512,999.512,251.465,999.512,-1000.000
1737973552.819,999.512,999.512,-23.438,999.512,-1000.000
1737973552.823,232.422,228.027,-331.055,235.840,-266.113
1737973552.826,-1000.000,-1000.000,-1000.000,-1000.000,999.512
1737973552.830,1.465,-172.852,-234.863,-101.074,127.441
1737973552.834,999.512,999.512,158.203,999.512,-1000.000
1737973552.838,999.512,999.512,-279.785,999.512,-1000.000
1737973552.842,238.770,226.562,-396.973,231.934,-258.789
1737973552.846,-1000.000,-1000.000,-1000.000,-1000.000,999.512
1737973552.850,-203.125,-201.660,-450.195,-202.637,166.016
1737973552.853,999.512,999.512,65.430,999.512,-1000.000
1737973552.857,999.512,999.512,-233.887,999.512,-1000.000
1737973552.861,223.633,249.512,-307.129,224.121,-360.352
1737973552.865,-1000.000,-1000.000,-1000.000,-1000.000,999.512
1737973552.869,-193.359,-204.102,-530.762,-193.848,189.453
1737973552.870,993.652,993.652,291.504,995.117,-1000.000
1737973552.874,999.512,999.512,15.625,999.512,-1000.000
1737973552.878,419.434,453.125,-198.242,411.621,-534.180
1737973552.882,-1000.000,-1000.000,-868.652,-1000.000,999.512
1737973552.886,-221.680,-361.328,-617.676,-319.336,332.031
1737973552.890,999.512,963.379,214.844,973.145,-1000.000
1737973552.894,999.512,999.512,-48.828,999.512,-1000.000
1737973552.897,598.633,614.258,-198.242,566.406,-694.336
1737973552.901,-1000.000,-977.539,-756.348,-1000.000,885.254
1737973552.905,-437.500,-616.211,-784.668,-540.039,592.285
1737973552.909,963.867,867.676,38.086,909.180,-918.457
1737973552.913,999.512,999.512,-208.496,999.512,-1000.000
1737973552.915,765.625,784.668,-335.449,765.137,-968.262
1737973552.919,-815.918,-690.918,-705.078,-753.418,443.359
1737973552.923,-628.418,-893.066,-878.418,-817.383,846.191
1737973552.927,919.922,647.949,69.824,729.980,-741.211
1737973552.931,986.816,999.512,46.387,999.512,-1000.000
1737973552.935,989.746,937.012,-26.855,900.391,-1000.000
1737973552.939,-390.625,-325.684,-446.777,-425.293,126.465
1737973552.942,-860.840,-1000.000,-888.184,-1000.000,999.512
1737973552.946,755.371,366.699,112.793,416.992,-297.363
1737973552.950,999.023,999.512,90.332,999.512,-1000.000
1737973552.954,999.512,999.512,-51.758,999.512,-1000.000
1737973552.958,-59.082,18.555,-335.938,-80.078,-80.566
1737973552.960,-1000.000,-1000.000,-1000.000,-1000.000,999.512
1737973552.964,413.086,106.445,-154.297,136.230,-124.023
1737973552.968,999.512,999.512,80.566,999.512,-1000.000
1737973552.972,999.512,999.512,-120.117,999.512,-1000.000
1737973552.976,125.000,177.246,-353.027,132.324,-232.422
1737973552.980,-1000.000,-1000.000,-1000.000,-1000.000,999.512
1737973552.984,118.164,-129.883,-281.738,-51.270,111.816
1737973552.987,999.512,999.512,254.883,999.512,-1000.000
1737973552.991,999.512,999.512,-141.113,999.512,-1000.000
1737973552.995,237.305,229.004,-472.656,215.820,-259.766
1737973552.999,-1000.000,-1000.000,-1000.000,-1000.000,999.512
1737973553.003,-101.562,-202.637,-281.738,-114.258,168.457
1737973553.005,999.512,999.512,223.145,994.141,-1000.000
1737973553.009,999.512,999.512,-166.504,999.512,-1000.000
1737973553.013,231.445,223.633,-331.055,226.562,-303.711
1737973553.017,-1000.000,-1000.000,-1000.000,-1000.000,999.512
1737973553.021,-197.754,-195.312,-420.410,-197.754,168.945
1737973553.025,997.559,997.070,314.453,998.047,-1000.000
1737973553.029,999.512,999.512,134.766,999.512,-1000.000
1737973553.032,323.242,375.977,-52.734,324.219,-471.191
1737973553.036,-1000.000,-1000.000,-958.496,-1000.000,999.512
1737973553.040,-206.055,-315.430,-633.789,-210.449,282.227
1737973553.044,999.512,968.262,183.105,999.023,-1000.000
1737973553.048,999.512,999.512,-153.809,999.512,-1000.000
1737973553.051,519.043,525.391,-318.848,523.438,-617.188
1737973553.055,-1000.000,-1000.000,-853.027,-1000.000,955.078
1737973553.059,-339.355,-530.273,-695.312,-436.035,614.258
1737973553.063,990.723,899.902,146.484,949.707,-861.328
1737973553.067,999.512,999.512,-212.891,999.512,-1000.000
1737973553.071,744.141,713.867,-260.742,734.375,-835.449
1737973553.075,-860.840,-821.289,-679.688,-849.121,672.852
1737973553.078,-569.336,-777.832,-841.309,-668.457,718.262
1737973553.082,944.824,761.230,84.473,880.859,-854.980
1737973553.086,988.770,999.512,-54.199,999.512,-1000.000
1737973553.090,964.355,939.453,-85.449,921.875,-1000.000
1737973553.094,-496.582,-396.973,-502.930,-465.820,213.867
1737973553.096,-767.090,-1000.000,-919.434,-980.469,969.727
1737973553.100,855.469,511.719,65.430,588.867,-598.145
1737973553.104,980.957,999.512,87.402,999.512,-1000.000
1737973553.108,999.512,999.512,-46.875,999.512,-1000.000
1737973553.112,-149.902,-71.777,-407.227,-128.906,-21.973
1737973553.116,-1000.000,-1000.000,-941.895,-1000.000,999.512
1737973553.120,562.012,199.219,23.926,236.816,-114.746
1737973553.123,999.512,999.512,68.359,999.512,-1000.000
1737973553.127,999.512,999.512,-186.035,999.512,-1000.000
1737973553.131,84.961,124.023,-375.977,68.848,-191.895
1737973553.135,-1000.000,-1000.000,-1000.000,-1000.000,999.512
1737973553.139,156.250,-46.875,-235.352,23.926,53.711
1737973553.155,999.512,999.512,107.422,999.512,-1000.000
1737973553.159,999.512,999.512,-129.395,999.512,-1000.000
1737973553.163,228.516,227.051,-328.613,239.258,-261.230
1737973553.167,-1000.000,-1000.000,-1000.000,-1000.000,999.512
1737973553.171,0.488,-194.336,-294.434,-203.125,145.020
1737973553.175,999.512,999.512,306.641,999.512,-1000.000
1737973553.179,999.512,999.512,-30.273,999.512,-1000.000
1737973553.182,238.770,224.609,-297.852,224.121,-269.043
1737973553.186,-1000.000,-1000.000,-1000.000,-1000.000,999.512
1737973553.190,-202.148,-199.219,-251.465,-202.637,166.504
1737973553.194,999.512,999.512,401.367,999.512,-1000.000
1737973553.198,999.512,999.512,-145.996,999.512,-1000.000
1737973553.200,237.793,296.875,-379.883,224.121,-391.602
1737973553.204,-1000.000,-1000.000,-1000.000,-1000.000,999.512
1737973553.208,-195.801,-237.793,-574.707,-193.359,211.426
1737973553.212,994.629,987.793,180.664,994.629,-1000.000
1737973553.245,-456.543,-685.059,-728.027,-575.195,776.855
1737973553.249,967.773,824.219,180.176,902.832,-763.184
1737973553.253,999.512,999.512,-113.770,999.512,-1000.000
1737973553.257,861.816,877.930,-147.461,850.586,-1000.000
1737973553.261,-682.617,-592.285,-561.035,-666.016,392.090
1737973553.265,-698.242,-850.586,-835.938,-780.762,828.125
1737973553.269,898.926,777.344,154.785,836.426,-820.801
1737973553.272,979.980,999.512,36.133,999.512,-1000.000
1737973553.276,999.512,999.512,117.676,999.512,-1000.000
1737973553.280,-256.348,-178.223,-282.227,-220.215,47.852
1737973553.284,-998.047,-1000.000,-1000.000,-1000.000,999.512
1737973553.288,594.727,280.762,-49.316,421.875,-376.465
1737973553.290,999.512,999.512,101.562,999.512,-1000.000
1737973553.294,999.512,999.512,-145.508,999.512,-1000.000
1737973553.298,7.324,41.016,-429.688,22.949,-135.742
1737973553.302,-1000.000,-1000.000,-1000.000,-1000.000,999.512
1737973553.306,259.277,56.152,-175.781,130.371,-78.613
1737973553.310,999.512,999.512,126.465,999.512,-1000.000
1737973553.314,999.512,999.512,-94.238,999.512,-1000.000
1737973553.317,228.027,214.355,-322.266,218.750,-244.141
1737973553.321,-1000.000,-1000.000,-1000.000,-1000.000,999.512
1737973553.325,43.457,-149.902,-260.742,-98.633,112.793
1737973553.329,999.512,999.512,196.289,999.512,-1000.000
1737973553.333,999.512,999.512,-141.113,999.512,-1000.000
1737973553.336,238.281,228.027,-305.176,231.934,-259.766
1737973553.340,-1000.000,-1000.000,-1000.000,-1000.000,999.512
1737973553.344,-164.062,-201.660,-396.973,-202.637,167.969
1737973553.348,999.512,999.512,366.699,999.512,-1000.000
1737973553.352,999.512,999.512,14.160,999.512,-1000.000
1737973553.356,226.562,238.770,-371.094,224.121,-317.871
1737973553.360,-1000.000,-1000.000,-1000.000,-1000.000,999.512
1737973553.363,-195.801,-196.777,-418.457,-197.266,225.586
1737973553.367,996.094,997.070,306.152,998.535,-1000.000
1737973553.371,999.512,999.512,-180.176,999.512,-1000.000
1737973553.375,365.234,406.250,-400.391,330.566,-471.680
1737973553.379,-1000.000,-1000.000,-972.168,-1000.000,999.512
1737973553.380,-213.379,-351.562,-655.762,-305.664,315.430
1737973553.384,999.512,958.008,152.344,966.797,-1000.000
1737973553.388,999.512,999.512,-94.238,999.512,-1000.000
1737973553.392,529.785,572.266,-255.371,517.578,-698.242
1737973553.396,-1000.000,-1000.000,-813.965,-1000.000,882.812
1737973553.400,-341.797,-565.430,-760.254,-516.602,587.402
1737973553.404,991.211,895.020,211.914,907.715,-920.898
1737973553.407,999.512,999.512,202.637,999.512,-1000.000
1737973553.411,744.141,776.855,15.625,725.098,-957.520
1737973553.415,-859.863,-722.656,-620.117,-825.195,478.516
1737973553.419,-581.543,-844.727,-852.051,-751.953,792.480
1737973553.423,938.477,703.613,80.078,793.457,-797.852
1737973553.425,990.723,999.512,-5.859,999.512,-1000.000
1737973553.429,957.031,954.590,-93.750,928.711,-1000.000
1737973553.433,-475.098,-326.172,-486.328,-419.922,180.664
1737973553.437,-858.887,-1000.000,-937.012,-1000.000,999.512
1737973553.441,754.883,382.324,-25.391,494.629,-496.582
1737973553.445,999.512,999.512,57.617,999.512,-1000.000
1737973553.449,999.512,999.512,131.348,999.512,-1000.000
1737973553.452,-121.582,-35.645,-216.309,-92.773,-37.598
1737973553.456,-1000.000,-1000.000,-1000.000,-1000.000,999.512
1737973553.460,419.434,148.926,-130.859,237.793,-219.238
1737973553.464,999.512,999.512,261.230,999.512,-1000.000
1737973553.468,999.512,999.512,23.438,999.512,-1000.000
1737973553.471,125.000,173.828,-361.328,131.348,-229.492
1737973553.475,-1000.000,-1000.000,-1000.000,-1000.000,999.512
1737973553.479,118.164,-77.637,-211.914,16.113,50.293
1737973553.483,999.512,999.512,130.859,999.512,-1000.000
1737973553.487,999.512,999.512,-214.844,999.512,-1000.000
1737973553.491,237.305,232.910,-363.281,239.258,-262.695
1737973553.495,-1000.000,-1000.000,-1000.000,-1000.000,999.512
1737973553.498,-101.562,-202.637,-358.398,-202.637,152.832
1737973553.502,999.512,999.512,127.930,999.512,-1000.000
1737973553.506,999.512,999.512,-145.996,999.512,-1000.000
1737973553.510,231.445,224.121,-228.027,224.121,-297.363
1737973553.514,-1000.000,-1000.000,-1000.000,-1000.000,999.512
1737973553.530,-197.754,-196.777,-467.285,-198.242,168.945
1737973553.534,998.047,998.535,353.027,999.512,-1000.000
1737973553.538,999.512,999.512,23.926,999.512,-1000.000
1737973553.542,322.754,344.727,-359.375,305.176,-447.754
1737973553.546,-1000.000,-1000.000,-1000.000,-1000.000,999.512
1737973553.550,-206.543,-263.184,-558.594,-204.102,259.766
1737973553.554,999.512,984.863,250.977,999.512,-1000.000
1737973553.557,999.512,999.512,-108.398,999.512,-1000.000
1737973553.561,508.301,521.973,-280.273,486.816,-609.863
1737973553.565,-1000.000,-1000.000,-816.895,-1000.000,983.887
1737973553.569,-280.273,-482.910,-717.285,-428.223,475.586
1737973553.573,999.512,923.340,123.047,940.918,-962.891
1737973553.575,999.512,999.512,-127.930,999.512,-1000.000
1737973553.579,659.180,682.617,-212.891,646.973,-870.117
1737973553.583,-962.402,-871.094,-727.051,-944.336,644.043
1737973553.587,-504.883,-738.281,-830.078,-648.438,711.426
1737973553.591,956.543,788.086,134.766,868.652,-862.305
1737973553.595,998.535,999.512,-66.406,999.512,-1000.000
1737973553.599,907.715,891.602,-153.809,854.004,-1000.000
1737973553.602,-605.957,-485.352,-542.480,-575.684,232.910
1737973553.606,-708.008,-1000.000,-848.633,-956.055,999.512
1737973553.610,902.832,528.809,142.578,598.633,-420.410
1737973553.614,975.586,999.512,-18.555,999.512,-1000.000
1737973553.618,999.512,999.512,-114.746,999.512,-1000.000
1737973553.621,-208.008,-110.840,-400.391,-196.289,39.551
1737973553.625,-994.629,-1000.000,-987.793,-1000.000,999.512
1737973553.629,590.332,225.586,-114.746,268.066,-319.824
1737973553.633,999.512,999.512,13.184,999.512,-1000.000
1737973553.637,999.512,999.512,-39.551,999.512,-1000.000
1737973553.641,12.695,80.078,-264.648,25.879,-169.434
1737973553.645,-1000.000,-1000.000,-1000.000,-1000.000,999.512
1737973553.648,232.422,-1.465,-232.910,62.012,-27.832
1737973553.652,999.512,999.512,246.094,999.512,-1000.000
1737973553.656,999.512,999.512,-51.270,999.512,-1000.000
1737973553.660,232.422,223.145,-415.039,234.863,-263.184
1737973553.664,-1000.000,-1000.000,-1000.000,-1000.000,999.512
1737973553.665,1.465,-180.664,-242.676,-123.047,133.301
1737973553.669,999.512,999.512,238.281,999.512,-1000.000
1737973553.673,999.512,999.512,-138.672,999.512,-1000.000
1737973553.677,238.770,225.586,-321.289,211.426,-258.301
1737973553.681,-1000.000,-1000.000,-1000.000,-1000.000,999.512
1737973553.685,-203.125,-200.195,-348.145,-114.746,168.457
1737973553.689,999.512,999.512,312.012,994.141,-1000.000
1737973553.692,999.512,999.512,57.129,999.512,-1000.000
1737973553.696,223.633,275.879,-96.191,226.562,-309.570
1737973553.700,-1000.000,-1000.000,-1000.000,-1000.000,999.512
1737973553.704,-193.359,-218.750,-576.660,-193.359,181.641
1737973553.708,994.141,993.164,179.199,994.629,-1000.000
1737973553.710,999.512,999.512,-191.406,999.512,-1000.000
1737973553.714,416.992,433.105,-439.453,426.758,-526.367
1737973553.718,-1000.000,-1000.000,-989.258,-1000.000,999.512
1737973553.722,-220.703,-420.410,-666.992,-327.637,451.660
1737973553.726,999.512,933.594,126.465,993.652,-948.730
1737973553.730,999.512,999.512,-121.582,999.512,-1000.000
1737973553.734,609.375,621.582,-196.777,517.578,-706.055
1737973553.737,-1000.000,-968.750,-708.984,-1000.000,858.887
1737973553.741,-416.016,-598.145,-748.535,-549.316,592.285
1737973553.745,984.863,895.996,157.715,914.551,-931.641
1737973553.749,999.512,999.512,27.344,999.512,-1000.000
1737973553.753,865.234,867.188,33.691,819.824,-1000.000
1737973553.755,-691.895,-581.543,-500.488,-681.641,358.398
1737973553.759,-631.348,-894.043,-898.926,-829.590,829.102
1737973553.763,934.082,672.852,99.121,738.281,-768.555
1737973553.767,982.422,999.512,-7.812,999.512,-1000.000
1737973553.771,998.535,979.980,-209.961,953.613,-1000.000
1737973553.775,-355.469,-242.188,-516.602,-343.262,97.168
1737973553.779,-951.660,-1000.000,-918.945,-1000.000,999.512
1737973553.782,640.137,286.133,-58.105,417.969,-199.707
1737973553.786,999.512,999.512,-133.301,999.512,-1000.000
1737973553.790,999.512,999.512,-233.398,999.512,-1000.000
1737973553.794,-110.352,-38.086,-431.152,-68.359,-40.527
1737973553.798,-1000.000,-1000.000,-1000.000,-1000.000,999.512
1737973553.800,354.492,77.637,-172.852,135.742,-66.895
1737973553.804,999.512,999.512,88.867,999.512,-1000.000
1737973553.808,999.512,999.512,-31.250,999.512,-1000.000
1737973553.812,187.012,200.684,-269.043,147.949,-238.281
1737973553.816,-1000.000,-1000.000,-1000.000,-1000.000,999.512
1737973553.820,108.887,-109.863,-196.777,-72.266,100.586
1737973553.824,999.512,999.512,349.121,999.512,-1000.000
1737973553.827,999.512,999.512,67.383,999.512,-1000.000
1737973553.831,237.305,230.469,-253.418,232.910,-259.277
1737973553.835,-1000.000,-1000.000,-1000.000,-1000.000,999.512
1737973553.839,-101.562,-202.637,-291.504,-202.637,153.809
1737973553.843,999.512,999.512,295.898,999.512,-1000.000
1737973553.846,999.512,999.512,-117.188,999.512,-1000.000
1737973553.850,231.445,224.121,-353.027,224.121,-317.383
1737973553.854,-1000.000,-1000.000,-1000.000,-1000.000,999.512
1737973553.858,-197.754,-196.289,-518.066,-197.754,172.852
1737973553.862,997.559,997.559,107.422,998.535,-1000.000
1737973553.866,999.512,999.512,-190.430,999.512,-1000.000
1737973553.870,323.242,358.398,-334.961,324.707,-436.035
1737973553.873,-1000.000,-1000.000,-998.535,-1000.000,999.512
1737973553.877,-206.055,-323.242,-652.344,-225.098,290.039
1737973553.881,999.512,961.914,250.977,994.141,-1000.000
1737973553.885,999.512,999.512,48.828,999.512,-1000.000
1737973553.889,519.043,548.828,-218.262,521.973,-658.203
1737973553.905,-1000.000,-1000.000,-809.082,-1000.000,930.664
1737973553.909,-339.355,-518.555,-683.105,-436.035,562.500
1737973553.913,990.723,915.039,222.656,949.707,-924.805
1737973553.917,999.512,999.512,-83.496,999.512,-1000.000
1737973553.921,744.141,750.000,-227.051,736.816,-867.676
1737973553.925,-859.863,-766.113,-659.668,-846.191,625.488
1737973553.929,-581.543,-819.336,-857.910,-669.434,750.488
1737973553.932,938.477,717.773,12.695,882.324,-824.707
1737973553.936,991.211,999.512,-156.738,999.512,-1000.000
1737973553.940,957.031,909.668,-246.582,939.453,-1000.000
1737973553.944,-475.098,-408.203,-564.941,-438.965,204.102
1737973553.948,-858.887,-1000.000,-969.727,-984.375,999.512
1737973553.950,754.395,390.137,-94.727,591.797,-506.348
1737973553.954,999.512,999.512,-119.141,999.512,-1000.000
1737973553.958,999.512,999.512,-269.531,999.512,-1000.000
1737973553.962,-138.672,-92.773,-466.309,-94.238,-17.090
1737973553.966,-1000.000,-1000.000,-992.188,-1000.000,999.512
1737973553.970,463.867,162.598,-113.770,236.816,-192.383
1737973553.974,999.512,999.512,162.598,999.512,-1000.000
1737973553.977,999.512,999.512,67.871,999.512,-1000.000
1737973553.981,111.328,161.621,-242.188,109.375,-205.566
1737973553.985,-1000.000,-1000.000,-994.629,-1000.000,999.512
1737973553.989,219.727,-1.953,-144.531,19.043,-27.344
1737973553.993,999.512,999.512,267.578,999.512,-1000.000
1737973553.995,999.512,999.512,145.996,999.512,-1000.000
1737973553.999,232.422,237.305,-175.293,239.258,-267.090
1737973554.003,-1000.000,-1000.000,-1000.000,-1000.000,999.512
1737973554.007,0.977,-190.918,-237.793,-202.637,141.113
1737973554.011,999.512,999.512,344.238,999.512,-1000.000
1737973554.015,999.512,999.512,-172.363,999.512,-1000.000
1737973554.019,238.770,225.098,-434.570,224.121,-263.672
1737973554.022,-1000.000,-1000.000,-1000.000,-1000.000,999.512
1737973554.026,-203.125,-199.707,-377.441,-202.637,185.547
1737973554.030,999.512,999.512,193.848,999.512,-1000.000
1737973554.034,999.512,999.512,-325.684,999.512,-1000.000
1737973554.038,223.633,281.250,-445.801,224.121,-380.859
1737973554.040,-1000.000,-1000.000,-1000.000,-1000.000,999.512
1737973554.044,-192.871,-248.535,-575.684,-192.871,220.703
1737973554.048,993.164,981.445,207.031,994.629,-1000.000
1737973554.052,999.512,999.512,-33.691,999.512,-1000.000
1737973554.056,442.383,485.840,-192.383,429.199,-577.637
1737973554.060,-1000.000,-1000.000,-840.820,-1000.000,999.512
1737973554.064,-225.586,-437.012,-706.055,-377.930,461.426
1737973554.067,999.512,937.500,261.230,950.195,-959.961
1737973554.071,999.512,999.512,109.863,999.512,-1000.000
1737973554.075,611.328,665.039,-168.945,601.074,-825.195
1737973554.079,-1000.000,-905.762,-727.539,-1000.000,715.332
1737973554.083,-456.543,-694.336,-784.668,-611.328,665.527
1737973554.085,967.285,815.918,113.770,879.883,-886.719
1737973554.089,999.512,999.512,-183.105,999.512,-1000.000
1737973554.093,861.328,824.219,-356.934,843.262,-972.168
1737973554.097,-682.617,-615.234,-664.551,-651.367,382.324
1737973554.101,-698.242,-948.242,-898.438,-832.031,966.309
1737973554.105,898.926,602.539,-26.367,769.531,-592.773
1737973554.109,979.980,999.512,-183.105,999.512,-1000.000
1737973554.112,999.512,993.164,-101.074,999.512,-1000.000
1737973554.116,-256.348,-197.754,-340.820,-221.680,57.617
1737973554.120,-998.535,-1000.000,-995.117,-1000.000,999.512
1737973554.124,595.215,267.578,-35.156,421.875,-354.492
1737973554.128,999.512,999.512,133.301,999.512,-1000.000
1737973554.131,999.512,999.512,99.609,999.512,-1000.000
1737973554.135,2.441,90.820,-226.562,22.461,-134.766
1737973554.139,-1000.000,-1000.000,-948.730,-1000.000,999.512
1737973554.143,359.375,88.379,-32.227,131.348,-107.422
1737973554.147,999.512,999.512,284.180,999.512,-1000.000
1737973554.151,999.512,999.512,159.668,999.512,-1000.000
1737973554.155,237.305,229.980,-234.375,237.793,-257.812
1737973554.158,-1000.000,-1000.000,-1000.000,-1000.000,999.512
1737973554.162,0.977,-166.992,-259.277,-101.074,117.188
1737973554.166,999.512,999.512,125.000,999.512,-1000.000
1737973554.170,999.512,999.512,-200.684,999.512,-1000.000
1737973554.174,238.770,226.562,-286.133,231.934,-259.277
1737973554.175,-1000.000,-1000.000,-1000.000,-1000.000,999.512
1737973554.179,-203.125,-202.148,-448.242,-202.637,166.992
1737973554.183,999.512,999.512,263.672,999.512,-1000.000
1737973554.187,999.512,999.512,-97.656,999.512,-1000.000
1737973554.191,223.633,236.816,-397.461,224.121,-348.145
1737973554.195,-1000.000,-1000.000,-1000.000,-1000.000,999.512
1737973554.199,-193.359,-195.312,-410.645,-194.336,261.719
1737973554.202,994.141,996.094,352.051,996.094,-1000.000
1737973554.206,999.512,999.512,-121.582,999.512,-1000.000
1737973554.210,419.922,432.617,-293.457,395.996,-495.605
1737973554.214,-1000.000,-1000.000,-901.855,-1000.000,999.512
1737973554.218,-223.145,-363.281,-667.480,-316.895,326.660
1737973554.220,999.512,957.031,142.578,972.656,-1000.000
1737973554.224,999.512,999.512,-149.902,999.512,-1000.000
1737973554.228,534.668,571.289,-345.703,526.367,-711.914
1737973554.232,-1000.000,-1000.000,-853.027,-1000.000,861.816
1737973554.280,999.512,995.605,38.574,925.293,-1000.000
1737973554.284,-319.824,-262.695,-336.914,-417.480,181.641
1737973554.288,-870.117,-1000.000,-929.199,-1000.000,999.512
1737973554.292,754.395,447.266,51.758,479.980,-539.551
1737973554.296,999.512,999.512,233.887,999.512,-1000.000
1737973554.300,999.512,999.512,330.078,999.512,-1000.000
1737973554.304,-77.637,9.766,-180.664,-87.402,-53.223
1737973554.307,-1000.000,-1000.000,-1000.000,-1000.000,999.512
1737973554.311,415.039,138.184,-92.285,197.754,-160.645
1737973554.315,999.512,999.512,283.203,999.512,-1000.000
1737973554.319,999.512,999.512,26.367,999.512,-1000.000
1737973554.323,125.000,173.340,-410.156,133.301,-228.516
1737973554.325,-1000.000,-1000.000,-1000.000,-1000.000,999.512
1737973554.329,118.164,-122.070,-260.742,-23.926,82.520
1737973554.333,999.512,999.512,-4.883,999.512,-1000.000
1737973554.337,999.512,999.512,-407.227,999.512,-1000.000
1737973554.341,237.305,229.492,-485.352,236.328,-261.230
1737973554.345,-1000.000,-1000.000,-1000.000,-1000.000,999.512
1737973554.349,-101.562,-202.637,-355.469,-202.637,163.086
1737973554.352,999.512,999.512,103.027,999.512,-1000.000
1737973554.356,999.512,999.512,-151.367,999.512,-1000.000
1737973554.360,231.445,224.121,-177.246,224.121,-305.664
1737973554.364,-1000.000,-1000.000,-1000.000,-1000.000,999.512
1737973554.368,-197.754,-195.801,-463.379,-197.266,169.434
1737973554.370,997.559,997.559,396.484,998.535,-1000.000
1737973554.374,999.512,999.512,128.906,999.512,-1000.000
1737973554.378,323.242,366.699,-256.348,323.730,-461.914
1737973554.382,-1000.000,-1000.000,-988.281,-1000.000,999.512
1737973554.386,-207.520,-276.367,-589.844,-206.543,248.535
1737973554.390,999.512,983.398,210.449,999.512,-1000.000
1737973554.394,999.512,999.512,-148.926,999.512,-1000.000
1737973554.397,483.887,503.906,-428.223,509.277,-596.680
1737973554.401,-1000.000,-1000.000,-921.875,-1000.000,995.605
1737973554.405,-332.520,-525.391,-749.023,-433.105,493.164
1737973554.409,985.840,896.484,30.762,946.289,-948.730
1737973554.413,999.512,999.512,-222.168,999.512,-1000.000
1737973554.415,716.797,698.242,-307.129,699.707,-848.633
1737973554.419,-893.555,-851.074,-736.816,-886.719,673.828
1737973554.423,-515.625,-739.258,-831.055,-661.133,698.242
1737973554.427,968.750,801.758,211.914,877.441,-874.512
1737973554.431,978.516,999.512,119.629,999.512,-1000.000
1737973554.435,971.191,953.613,102.539,907.715,-1000.000
1737973554.439,-508.789,-392.090,-388.672,-488.281,222.656
1737973554.442,-720.215,-1000.000,-843.262,-977.051,999.512
1737973554.446,906.738,563.965,213.867,587.402,-474.121
1737973554.450,971.191,999.512,169.922,999.512,-1000.000
1737973554.454,999.512,999.512,127.441,999.512,-1000.000
1737973554.458,-148.438,-66.895,-298.828,-153.320,-18.555
1737973554.460,-1000.000,-1000.000,-980.469,-1000.000,999.512
1737973554.464,553.223,199.707,-89.355,235.840,-225.098
1737973554.468,999.512,999.512,5.371,999.512,-1000.000
1737973554.472,999.512,999.512,-83.008,999.512,-1000.000
1737973554.476,18.555,81.055,-286.621,28.809,-190.918
1737973554.480,-1000.000,-1000.000,-1000.000,-1000.000,999.512
1737973554.484,185.059,-50.293,-280.273,28.809,68.848
1737973554.487,999.512,999.512,166.016,999.512,-1000.000
1737973554.491,999.512,999.512,-181.152,999.512,-1000.000
1737973554.495,229.492,216.309,-478.027,237.305,-255.859
1737973554.499,-1000.000,-1000.000,-1000.000,-1000.000,999.512
1737973554.503,0.977,-190.918,-252.930,-177.246,143.066
1737973554.505,999.512,999.512,206.543,999.512,-1000.000
1737973554.509,999.512,999.512,-168.457,999.512,-1000.000
1737973554.513,238.770,225.098,-308.105,226.074,-270.996
1737973554.517,-1000.000,-1000.000,-1000.000,-1000.000,999.512
1737973554.521,-203.125,-199.707,-345.703,-202.637,168.945
1737973554.525,999.512,999.512,346.191,999.512,-1000.000
1737973554.529,999.512,999.512,153.809,999.512,-1000.000
1737973554.532,223.633,283.691,-56.641,224.121,-342.285
1737973554.536,-1000.000,-1000.000,-1000.000,-1000.000,999.512
1737973554.540,-193.359,-234.375,-579.590,-193.359,200.195
1737973554.544,993.652,988.281,197.266,994.629,-1000.000
1737973554.548,999.512,999.512,-180.664,999.512,-1000.000
1737973554.550,419.922,441.406,-455.566,427.734,-510.742
1737973554.554,-1000.000,-1000.000,-991.211,-1000.000,999.512
1737973554.558,-221.191,-451.660,-674.805,-346.680,505.859
1737973554.562,999.512,920.898,110.352,963.379,-917.480
1737973554.566,999.512,999.512,-199.219,999.512,-1000.000
1737973554.570,610.352,636.719,-240.234,603.516,-719.727
1737973554.574,-1000.000,-946.777,-705.078,-1000.000,832.520
1737973554.577,-439.941,-621.582,-771.484,-549.316,612.305
1737973554.581,974.609,882.324,181.641,919.922,-919.434
1737973554.585,999.512,999.512,114.746,999.512,-1000.000
1737973554.589,862.793,882.812,126.465,845.703,-1000.000
1737973554.593,-688.477,-555.176,-474.121,-647.949,337.891
1737973554.595,-655.273,-904.785,-895.508,-836.914,841.797
1737973554.599,926.270,668.457,146.484,748.047,-761.719
1737973554.603,971.191,999.512,116.211,999.512,-1000.000
1737973554.607,999.512,997.070,-50.781,999.512,-1000.000
1737973554.611,-259.766,-196.289,-438.965,-227.539,58.105
1737973554.615,-988.770,-1000.000,-943.359,-1000.000,999.512
1737973554.619,600.586,277.344,-33.691,420.410,-360.840
1737973554.622,999.512,999.512,5.859,999.512,-1000.000
1737973554.626,999.512,999.512,-254.395,999.512,-1000.000
1737973554.630,-52.734,-1.953,-478.516,-1.465,-82.031
1737973554.634,-1000.000,-1000.000,-1000.000,-1000.000,999.512
1737973554.638,238.281,33.203,-229.004,131.836,-44.922
1737973554.655,999.512,999.512,9.766,999.512,-1000.000
1737973554.659,999.512,999.512,-123.047,999.512,-1000.000
1737973554.663,201.172,201.660,-288.574,201.660,-240.234
1737973554.667,-1000.000,-1000.000,-1000.000,-1000.000,999.512
1737973554.671,75.195,-150.391,-236.328,-96.191,114.258
1737973554.675,999.512,999.512,316.895,999.512,-1000.000
1737973554.679,999.512,999.512,28.809,999.512,-1000.000
1737973554.682,234.863,228.027,-253.906,231.934,-259.277
1737973554.686,-1000.000,-1000.000,-1000.000,-1000.000,999.512
1737973554.690,-101.562,-202.148,-251.953,-202.637,167.480
1737973554.694,999.512,999.512,366.699,999.512,-1000.000
1737973554.698,999.512,999.512,-100.098,999.512,-1000.000
1737973554.700,231.445,236.816,-336.914,224.121,-331.055
1737973554.704,-1000.000,-1000.000,-1000.000,-1000.000,999.512
1737973554.708,-197.754,-196.777,-502.441,-197.754,174.805
1737973554.712,997.559,997.559,203.125,998.535,-1000.000
1737973554.716,999.512,999.512,-107.910,999.512,-1000.000
1737973554.720,326.172,387.695,-304.688,329.102,-448.730
1737973554.724,-1000.000,-1000.000,-984.863,-1000.000,999.512
1737973554.727,-206.543,-339.355,-677.734,-292.480,297.363
1737973554.731,999.512,959.961,247.559,971.191,-1000.000
1737973554.735,999.512,999.512,91.797,999.512,-1000.000
1737973554.739,529.297,575.684,-207.031,517.578,-704.590
1737973554.743,-1000.000,-1000.000,-808.105,-1000.000,883.789
1737973554.745,-341.797,-544.434,-708.984,-479.492,550.293
1737973554.749,989.746,907.227,191.895,926.270,-944.336
1737973554.753,999.512,999.512,-24.902,999.512,-1000.000
1737973554.757,726.074,770.020,-62.500,718.750,-908.691
1737973554.761,-803.711,-719.727,-562.500,-798.828,547.852
1737973554.765,-493.164,-835.938,-835.449,-675.293,817.871
1737973554.769,927.246,690.918,106.934,813.965,-760.742
1737973554.772,991.211,999.512,-76.172,999.512,-1000.000
1737973554.776,959.473,934.082,-11.230,937.988,-1000.000
1737973554.780,-475.098,-360.840,-356.445,-438.477,177.246
1737973554.784,-858.887,-1000.000,-997.559,-987.793,999.512
1737973554.788,754.883,377.441,-49.805,586.914,-493.652
1737973554.790,999.512,999.512,-23.438,999.512,-1000.000
1737973554.794,999.512,999.512,-228.516,999.512,-1000.000
1737973554.798,-121.582,-66.406,-458.008,-89.844,-36.133
1737973554.802,-1000.000,-1000.000,-1000.000,-1000.000,999.512
1737973554.806,419.434,135.254,-149.414,237.793,-203.613
1737973554.810,999.512,999.512,125.488,999.512,-1000.000
1737973554.814,999.512,999.512,-40.039,999.512,-1000.000
1737973554.817,121.094,162.598,-311.035,131.348,-210.938
1737973554.821,-1000.000,-1000.000,-1000.000,-1000.000,999.512
1737973554.825,145.996,-52.246,-225.098,16.113,28.809
1737973554.829,999.512,999.512,176.270,999.512,-1000.000
1737973554.833,999.512,999.512,-69.824,999.512,-1000.000
1737973554.835,235.352,234.863,-282.715,239.258,-263.672
1737973554.839,-1000.000,-1000.000,-1000.000,-1000.000,999.512
1737973554.843,-75.684,-209.961,-279.297,-209.961,148.438
1737973554.847,999.512,999.512,361.328,999.512,-1000.000
1737973554.851,999.512,999.512,-122.070,999.512,-1000.000
1737973554.855,145.508,136.230,-386.719,135.742,-277.832
1737973554.859,-1000.000,-1000.000,-1000.000,-1000.000,999.512
1737973554.862,-199.219,-198.242,-378.418,-199.219,186.035
1737973554.866,997.070,997.559,341.797,998.047,-1000.000
1737973554.870,999.512,999.512,-172.363,999.512,-1000.000
1737973554.874,297.363,314.941,-432.129,290.527,-410.156
1737973554.878,-1000.000,-1000.000,-1000.000,-1000.000,999.512
1737973554.880,-202.637,-262.695,-607.422,-202.148,233.398
1737973554.884,998.047,980.957,178.711,999.023,-1000.000
1737973554.888,999.512,999.512,-105.957,999.512,-1000.000
1737973554.892,494.141,511.719,-261.719,477.539,-617.676
1737973554.896,-1000.000,-1000.000,-844.238,-1000.000,979.004
1737973554.900,-236.328,-462.891,-714.355,-426.270,479.492
1737973554.904,999.512,932.129,248.047,937.012,-962.891
1737973554.907,999.512,999.512,166.504,999.512,-1000.000
1737973554.911,703.125,704.590,-113.770,597.656,-880.371
1737973554.915,-921.387,-857.422,-739.258,-998.047,636.719
1737973554.919,-476.074,-714.355,-799.805,-637.695,687.500
1737973554.923,973.633,814.941,143.066,863.770,-885.254
1737973554.925,999.512,999.512,-25.391,999.512,-1000.000
1737973554.929,876.953,884.277,-165.039,828.613,-1000.000
1737973554.933,-659.180,-501.465,-554.199,-616.699,304.199
1737973554.937,-700.684,-1000.000,-913.086,-946.289,935.547
1737973554.941,898.926,529.297,-27.344,605.957,-641.602
1737973554.945,980.957,999.512,-23.438,999.512,-1000.000
1737973554.949,999.512,999.512,91.309,999.512,-1000.000
1737973554.952,-256.348,-151.855,-250.488,-202.637,24.414
1737973554.956,-998.535,-1000.000,-1000.000,-1000.000,999.512
1737973554.960,594.727,227.539,-90.332,302.246,-324.707
1737973554.964,999.512,999.512,98.145,999.512,-1000.000
1737973554.968,999.512,999.512,-74.707,999.512,-1000.000
1737973554.971,12.695,77.637,-364.746,21.484,-179.199
1737973554.975,-1000.000,-1000.000,-1000.000,-1000.000,999.512
1737973554.979,232.422,19.531,-138.184,107.422,-24.414
1737973554.983,999.512,999.512,139.160,999.512,-1000.000
1737973554.987,999.512,999.512,-130.859,999.512,-1000.000
1737973554.991,232.422,223.633,-328.125,236.328,-248.047
1737973554.995,-1000.000,-1000.000,-1000.000,-1000.000,999.512
1737973554.998,0.977,-180.176,-268.066,-104.004,132.324
1737973555.002,999.512,999.512,200.195,999.512,-1000.000
1737973555.006,999.512,999.512,-99.609,999.512,-1000.000
1737973555.010,238.770,225.586,-251.953,231.934,-262.207
1737973555.014,-1000.000,-1000.000,-1000.000,-1000.000,999.512
1737973555.030,-203.125,-200.684,-399.414,-202.637,166.016
1737973555.034,999.512,999.512,348.633,999.512,-1000.000
1737973555.038,999.512,999.512,-19.531,999.512,-1000.000
1737973555.042,223.633,267.578,-354.492,224.121,-380.859
1737973555.046,-1000.000,-1000.000,-1000.000,-1000.000,999.512
1737973555.050,-193.359,-210.938,-431.152,-193.359,260.254
1737973555.054,993.652,994.141,343.750,994.629,-1000.000
1737973555.057,999.512,999.512,-81.543,999.512,-1000.000
1737973555.061,419.434,445.801,-327.148,426.758,-511.230
1737973555.065,-1000.000,-1000.000,-940.430,-1000.000,999.512
1737973555.069,-221.680,-395.508,-673.340,-320.801,364.746
1737973555.073,999.512,947.266,146.973,975.098,-989.258
1737973555.075,999.512,999.512,-115.723,999.512,-1000.000
1737973555.079,595.703,604.004,-261.719,594.727,-738.770
1737973555.083,-1000.000,-982.910,-783.203,-1000.000,831.543
1737973555.087,-430.176,-622.070,-802.246,-546.387,613.281
1737973555.091,975.098,866.211,149.414,916.016,-910.645
1737973555.095,999.512,999.512,26.855,999.512,-1000.000
1737973555.099,849.121,822.754,-61.523,810.547,-960.938
1737973555.102,-711.426,-640.625,-577.148,-693.359,405.273
1737973555.106,-623.535,-893.555,-837.891,-828.613,959.473
1737973555.110,944.336,665.527,205.078,740.234,-591.797
1737973555.114,963.379,999.512,60.059,999.512,-1000.000
1737973555.118,999.512,991.211,-90.332,966.797,-1000.000
1737973555.120,-293.457,-237.305,-459.473,-317.871,125.000
1737973555.124,-872.070,-1000.000,-950.195,-1000.000,999.512
1737973555.128,755.859,354.492,-54.688,417.969,-464.355
1737973555.132,999.512,999.512,58.105,999.512,-1000.000
1737973555.136,999.512,999.512,55.176,999.512,-1000.000
1737973555.140,-49.805,19.043,-266.113,-57.129,-83.008
1737973555.144,-1000.000,-1000.000,-1000.000,-1000.000,999.512
1737973555.147,413.574,99.609,-170.410,133.301,-158.691
1737973555.151,999.512,999.512,281.738,999.512,-1000.000
1737973555.155,999.512,999.512,93.262,999.512,-1000.000
1737973555.159,143.066,200.195,-356.445,134.766,-243.652
1737973555.163,-1000.000,-1000.000,-1000.000,-1000.000,999.512
1737973555.165,115.723,-127.930,-194.824,-73.242,106.445
1737973555.169,999.512,999.512,192.871,999.512,-1000.000
1737973555.173,999.512,999.512,-185.059,999.512,-1000.000
1737973555.177,237.305,229.492,-400.879,232.910,-259.766
1737973555.181,-1000.000,-1000.000,-1000.000,-1000.000,999.512
1737973555.185,-101.562,-202.637,-358.398,-202.637,163.086
1737973555.189,999.512,999.512,255.859,999.512,-1000.000
1737973555.192,999.512,999.512,-14.160,999.512,-1000.000
1737973555.196,231.445,224.121,-209.473,224.121,-318.359
1737973555.200,-1000.000,-1000.000,-1000.000,-1000.000,999.512
1737973555.204,-197.754,-196.289,-517.090,-197.266,172.363
1737973555.208,997.559,998.047,260.254,998.535,-1000.000
1737973555.210,999.512,999.512,-52.246,999.512,-1000.000
1737973555.214,323.242,357.422,-357.910,323.730,-462.402
1737973555.218,-1000.000,-1000.000,-1000.000,-1000.000,999.512
1737973555.222,-206.543,-312.988,-552.246,-207.031,394.531
1737973555.226,999.512,966.309,263.184,999.512,-960.449
1737973555.230,999.512,999.512,-72.266,999.512,-1000.000
1737973555.234,519.043,545.898,-232.422,523.438,-630.859
1737973555.237,-1000.000,-1000.000,-820.312,-1000.000,950.684
1737973555.241,-339.355,-529.785,-739.258,-436.035,506.348
1737973555.245,986.816,904.785,142.578,945.801,-956.055
1737973555.249,999.512,999.512,-72.754,999.512,-1000.000
1737973555.253,708.008,724.121,-162.109,700.195,-901.855
1737973555.256,-755.371,-723.633,-623.535,-741.699,490.723
1737973555.260,-400.391,-687.988,-808.594,-488.281,702.148
1737973555.264,920.410,743.652,167.480,864.746,-772.949
1737973555.268,989.746,999.512,65.918,999.512,-1000.000
1737973555.300,482.910,169.434,-109.863,236.328,-208.008
1737973555.304,999.512,999.512,106.445,999.512,-1000.000
1737973555.308,999.512,999.512,21.484,999.512,-1000.000
1737973555.312,93.750,123.535,-270.508,111.816,-203.613
1737973555.316,-1000.000,-1000.000,-1000.000,-1000.000,999.512
1737973555.320,156.738,-57.129,-251.953,18.555,61.523
1737973555.324,999.512,999.512,312.988,999.512,-1000.000
1737973555.327,999.512,999.512,127.930,999.512,-1000.000
1737973555.331,232.422,233.398,-341.309,239.258,-260.742
1737973555.335,-1000.000,-1000.000,-1000.000,-1000.000,999.512
1737973555.339,-37.109,-201.172,-277.832,-202.637,145.996
1737973555.343,999.512,999.512,240.234,999.512,-1000.000
1737973555.345,999.512,999.512,-124.023,999.512,-1000.000
1737973555.349,235.840,224.121,-320.801,224.121,-280.762
1737973555.353,-1000.000,-1000.000,-1000.000,-1000.000,999.512
1737973555.357,-200.195,-198.730,-433.594,-203.125,168.457
1737973555.361,999.512,999.512,255.859,999.512,-1000.000
1737973555.365,999.512,999.512,55.176,999.512,-1000.000
1737973555.369,272.461,301.270,-126.465,224.121,-389.648
1737973555.372,-1000.000,-1000.000,-1000.000,-1000.000,999.512
1737973555.376,-201.660,-250.000,-629.883,-193.359,218.750
1737973555.380,997.559,983.887,278.320,994.629,-1000.000
1737973555.384,999.512,999.512,78.613,999.512,-1000.000
1737973555.388,419.922,475.098,-273.926,429.688,-583.008
1737973555.405,-1000.000,-1000.000,-908.691,-1000.000,999.512
1737973555.409,-221.191,-458.008,-667.969,-400.391,533.691
1737973555.413,999.512,924.805,172.363,940.430,-915.039
1737973555.417,999.512,999.512,-71.289,999.512,-1000.000
1737973555.421,611.328,650.391,-163.086,599.609,-744.629
1737973555.425,-1000.000,-917.480,-702.148,-1000.000,798.340
1737973555.429,-456.543,-694.336,-809.570,-593.750,664.551
1737973555.432,967.285,818.848,146.484,891.113,-874.023
1737973555.436,999.512,999.512,50.781,999.512,-1000.000
1737973555.440,861.328,872.559,126.465,838.867,-978.516
1737973555.444,-683.105,-529.785,-395.508,-638.184,387.695
1737973555.448,-698.242,-984.375,-942.383,-871.094,911.621
1737973555.450,899.414,560.547,56.641,704.102,-664.551
1737973555.454,979.980,999.512,71.777,999.512,-1000.000
1737973555.458,999.512,999.512,-88.379,999.512,-1000.000
1737973555.462,-256.836,-172.363,-445.801,-223.633,39.062
1737973555.466,-998.047,-1000.000,-976.074,-1000.000,999.512
1737973555.470,594.238,250.488,-77.148,421.875,-301.270
1737973555.474,999.512,999.512,109.375,999.512,-1000.000
1737973555.477,999.512,999.512,-64.453,999.512,-1000.000
1737973555.481,12.207,51.758,-390.625,22.949,-125.977
1737973555.485,-1000.000,-1000.000,-1000.000,-1000.000,999.512
1737973555.489,232.422,34.668,-228.027,131.348,-65.430
1737973555.493,999.512,999.512,169.434,999.512,-1000.000
1737973555.495,999.512,999.512,66.895,999.512,-1000.000
1737973555.499,230.957,218.262,-258.789,237.793,-248.047
1737973555.503,-1000.000,-1000.000,-1000.000,-1000.000,999.512
1737973555.507,15.625,-167.480,-274.902,-101.074,121.094
1737973555.511,999.512,999.512,336.914,999.512,-1000.000
1737973555.515,999.512,999.512,39.551,999.512,-1000.000
1737973555.519,238.281,226.562,-276.855,231.934,-259.277
1737973555.522,-1000.000,-1000.000,-1000.000,-1000.000,999.512
1737973555.526,-186.035,-201.660,-305.176,-202.637,166.992
1737973555.530,999.512,999.512,317.383,999.512,-1000.000
1737973555.534,999.512,999.512,-212.891,999.512,-1000.000
1737973555.538,225.098,241.699,-424.316,223.633,-338.379
1737973555.541,-1000.000,-1000.000,-1000.000,-1000.000,999.512
1737973555.545,-194.336,-207.520,-575.195,-194.824,187.012
1737973555.549,994.141,993.164,209.473,996.094,-1000.000
1737973555.553,999.512,999.512,43.945,999.512,-1000.000
1737973555.557,405.273,419.434,-150.879,392.090,-505.859
1737973555.561,-1000.000,-1000.000,-913.086,-1000.000,999.512
1737973555.565,-219.238,-366.699,-685.547,-315.918,372.559
1737973555.568,999.512,955.566,263.672,972.168,-983.887
1737973555.572,999.512,999.512,235.352,999.512,-1000.000
1737973555.576,596.191,604.004,-77.148,552.246,-736.816
1737973555.580,-1000.000,-992.188,-812.988,-1000.000,839.844
1737973555.584,-373.047,-583.008,-745.605,-536.133,581.543
1737973555.586,992.676,891.602,188.477,904.297,-934.570
1737973555.590,999.512,999.512,9.277,999.512,-1000.000
1737973555.594,773.926,780.762,-142.090,720.215,-939.453
1737973555.598,-818.848,-700.195,-639.648,-812.012,490.723
1737973555.602,-587.402,-891.602,-882.812,-809.082,836.426
1737973555.606,938.965,646.973,46.875,730.957,-728.027
1737973555.610,992.188,999.512,-20.996,999.512,-1000.000
1737973555.613,957.031,938.965,78.125,922.363,-980.469
1737973555.617,-475.098,-339.355,-310.547,-411.621,317.871
1737973555.621,-859.375,-1000.000,-998.535,-1000.000,999.512
1737973555.625,756.348,347.656,-37.598,449.219,-466.309
1737973555.629,999.512,999.512,92.285,999.512,-1000.000
1737973555.630,999.512,999.512,-58.105,999.512,-1000.000
1737973555.634,-101.074,-23.438,-398.926,-82.031,-70.312
1737973555.638,-1000.000,-1000.000,-1000.000,-1000.000,999.512
1737973555.642,417.480,112.305,-122.070,156.738,-179.199
1737973555.646,999.512,999.512,156.250,999.512,-1000.000
1737973555.650,999.512,999.512,-12.207,999.512,-1000.000
1737973555.654,125.000,182.129,-294.922,131.836,-208.496
1737973555.657,-1000.000,-1000.000,-1000.000,-1000.000,999.512
1737973555.661,118.164,-107.910,-274.414,-34.180,65.918
1737973555.665,999.512,999.512,160.156,999.512,-1000.000
1737973555.669,999.512,999.512,-66.895,999.512,-1000.000
1737973555.673,237.305,230.957,-275.879,235.840,-262.207
1737973555.675,-1000.000,-1000.000,-1000.000,-1000.000,999.512
1737973555.679,-101.562,-202.637,-371.582,-202.637,162.109
1737973555.683,999.512,999.512,331.055,999.512,-1000.000
1737973555.687,999.512,999.512,42.969,999.512,-1000.000
1737973555.691,231.445,224.121,-290.527,224.121,-314.453
1737973555.695,-1000.000,-1000.000,-1000.000,-1000.000,999.512
1737973555.699,-197.754,-197.266,-373.535,-197.266,206.055
1737973555.702,997.070,998.047,343.262,998.535,-1000.000
1737973555.706,999.512,999.512,-98.633,999.512,-1000.000
1737973555.710,323.242,342.773,-322.754,323.730,-417.480
1737973555.714,-1000.000,-1000.000,-998.047,-1000.000,999.512
1737973555.718,-206.055,-300.293,-647.949,-206.055,260.742
1737973555.720,999.512,969.238,160.645,999.512,-1000.000
1737973555.724,999.512,999.512,6.836,999.512,-1000.000
1737973555.728,518.555,524.414,-175.293,523.438,-629.395
1737973555.732,-1000.000,-1000.000,-852.051,-1000.000,963.867
1737973555.736,-327.637,-518.066,-761.719,-436.035,510.742
1737973555.740,995.117,907.227,230.469,948.242,-948.730
1737973555.744,999.512,999.512,114.746,999.512,-1000.000
1737973555.747,744.629,713.379,-152.344,716.797,-884.277
1737973555.751,-862.793,-822.754,-704.590,-868.164,604.492
1737973555.755,-550.293,-777.344,-803.223,-664.551,770.508
1737973555.759,954.590,757.324,132.812,876.953,-800.293
1737973555.763,984.863,999.512,-2.441,999.512,-1000.000
1737973555.782,962.891,911.621,-49.805,901.367,-1000.000
1737973555.786,-487.305,-427.734,-489.746,-497.559,302.246
1737973555.790,-808.105,-1000.000,-932.129,-976.562,988.281
1737973555.794,809.082,455.566,-39.062,588.379,-565.918
1737973555.798,990.723,999.512,36.133,999.512,-1000.000
1737973555.802,999.512,999.512,44.434,999.512,-1000.000
1737973555.806,-164.062,-98.633,-346.680,-139.648,28.320
1737973555.809,-1000.000,-1000.000,-1000.000,-1000.000,999.512
1737973555.813,573.242,178.711,-140.625,235.840,-264.648
1737973555.817,999.512,999.512,239.746,999.512,-1000.000
1737973555.821,999.512,999.512,78.613,999.512,-1000.000
1737973555.825,47.363,88.867,-365.234,43.945,-190.918
1737973555.826,-1000.000,-1000.000,-1000.000,-1000.000,999.512
1737973555.830,228.027,-25.391,-211.914,26.855,10.742
1737973555.834,999.512,999.512,197.754,999.512,-1000.000
1737973555.838,999.512,999.512,-71.777,999.512,-1000.000
1737973555.842,232.422,228.027,-353.027,239.258,-258.301
1737973555.846,-1000.000,-1000.000,-1000.000,-1000.000,999.512
1737973555.850,1.465,-194.336,-275.879,-202.637,150.391
1737973555.853,999.512,999.512,292.480,999.512,-1000.000
1737973555.857,999.512,999.512,83.984,999.512,-1000.000
1737973555.861,238.770,224.609,-141.113,224.121,-276.367
1737973555.865,-1000.000,-1000.000,-1000.000,-1000.000,999.512
1737973555.869,-203.125,-199.707,-433.105,-202.637,167.480
1737973555.870,999.512,999.512,393.066,999.512,-1000.000
1737973555.874,999.512,999.512,117.188,999.512,-1000.000
1737973555.878,224.121,282.227,-303.711,224.121,-395.020
1737973555.882,-1000.000,-1000.000,-1000.000,-1000.000,999.512
1737973555.886,-193.848,-246.094,-578.613,-192.871,219.238
1737973555.890,993.652,983.398,240.723,994.629,-1000.000
1737973555.894,999.512,999.512,-13.672,999.512,-1000.000
1737973555.897,419.922,460.938,-235.352,428.711,-527.344
1737973555.901,-1000.000,-1000.000,-877.441,-1000.000,999.512
1737973555.905,-221.191,-440.918,-702.148,-363.770,403.320
1737973555.909,999.512,929.199,128.906,956.055,-976.074
1737973555.913,999.512,999.512,-66.895,999.512,-1000.000
1737973555.915,611.328,631.836,-183.594,602.051,-774.414
1737973555.919,-1000.000,-942.871,-756.836,-1000.000,785.645
1737973555.923,-456.543,-670.898,-818.848,-569.824,642.578
1737973555.927,967.773,833.984,173.340,906.250,-894.043
1737973555.931,999.512,999.512,85.449,999.512,-1000.000
1737973555.935,861.328,860.352,44.922,843.750,-963.867
1737973555.939,-682.617,-561.523,-495.605,-647.949,379.883
1737973555.942,-698.242,-953.125,-865.723,-837.402,999.512
1737973555.946,898.926,598.633,222.656,748.047,-531.738
1737973555.950,980.469,999.512,110.352,999.512,-1000.000
1737973555.954,999.512,992.188,-69.824,999.512,-1000.000
1737973555.958,-256.348,-197.754,-436.035,-222.656,75.195
1737973555.960,-998.047,-1000.000,-989.746,-1000.000,999.512
1737973555.964,594.238,252.441,-118.164,421.387,-313.965
1737973555.968,999.512,999.512,14.160,999.512,-1000.000
1737973555.972,999.512,999.512,-28.809,999.512,-1000.000
1737973555.976,11.230,17.578,-313.965,16.602,-117.676
1737973555.980,-1000.000,-1000.000,-1000.000,-1000.000,999.512
1737973555.984,232.422,20.020,-223.633,130.859,-10.254
1737973555.987,999.512,999.512,273.926,999.512,-1000.000
1737973555.991,999.512,999.512,109.375,999.512,-1000.000
1737973555.995,223.145,206.055,-343.262,220.215,-243.164
1737973555.999,-1000.000,-1000.000,-1000.000,-1000.000,999.512
1737973556.003,76.172,-154.785,-228.027,-98.633,131.348
1737973556.006,999.512,999.512,289.551,999.512,-1000.000
1737973556.010,999.512,999.512,6.348,999.512,-1000.000
1737973556.014,235.352,227.539,-260.254,231.934,-258.301
1737973556.018,-1000.000,-1000.000,-1000.000,-1000.000,999.512
1737973556.022,-101.562,-202.148,-364.258,-202.637,165.039
1737973556.026,999.512,999.512,287.598,999.512,-1000.000
1737973556.030,999.512,999.512,58.105,999.512,-1000.000
1737973556.033,231.445,232.910,-156.738,224.121,-341.797
1737973556.037,-1000.000,-1000.000,-1000.000,-1000.000,999.512
1737973556.041,-196.289,-202.148,-570.801,-197.266,181.641
1737973556.045,996.582,995.117,178.711,998.535,-1000.000
1737973556.049,999.512,999.512,-176.758,999.512,-1000.000
1737973556.051,359.375,384.766,-410.156,335.938,-451.172
1737973556.055,-1000.000,-1000.000,-998.535,-1000.000,999.512
1737973556.059,-211.426,-358.398,-584.961,-306.641,448.730
1737973556.063,999.512,952.148,220.703,967.285,-930.664
1737973556.067,999.512,999.512,-141.113,999.512,-1000.000
1737973556.071,571.777,579.590,-223.633,517.090,-653.320
1737973556.075,-1000.000,-1000.000,-755.859,-1000.000,922.852
1737973556.078,-351.074,-576.172,-753.418,-528.809,549.805
1737973556.082,998.047,891.113,134.766,901.367,-940.918
1737973556.086,999.512,999.512,-80.566,999.512,-1000.000
1737973556.090,777.344,784.668,-97.656,722.656,-935.059
1737973556.094,-816.895,-708.008,-579.590,-818.848,517.090
1737973556.095,-587.891,-854.004,-880.371,-777.832,793.457
1737973556.099,938.965,693.848,26.367,764.648,-794.434
1737973556.103,991.699,999.512,-62.988,999.512,-1000.000
1737973556.107,957.031,947.266,-154.297,926.758,-1000.000
1737973556.111,-475.098,-329.590,-537.109,-417.969,128.418
1737973556.115,-859.375,-1000.000,-911.133,-1000.000,999.512
1737973556.119,754.883,356.445,25.391,483.887,-288.574
1737973556.122,999.512,999.512,-22.461,999.512,-1000.000
1737973556.126,999.512,999.512,-187.988,999.512,-1000.000
1737973556.130,-121.582,-45.898,-439.941,-89.844,-29.785
1737973556.134,-1000.000,-1000.000,-1000.000,-1000.000,999.512
1737973556.138,419.922,125.977,-160.645,216.797,-193.848
1737973556.155,999.512,999.512,91.309,999.512,-1000.000
1737973556.159,999.512,999.512,41.016,999.512,-1000.000
1737973556.163,125.000,175.781,-240.723,130.371,-228.027
1737973556.167,-1000.000,-1000.000,-1000.000,-1000.000,999.512
1737973556.171,118.164,-87.402,-246.582,16.113,59.570
1737973556.175,999.512,999.512,208.496,999.512,-1000.000
1737973556.179,999.512,999.512,-40.039,999.512,-1000.000
1737973556.182,237.305,232.422,-316.895,239.258,-263.184
1737973556.186,-1000.000,-1000.000,-1000.000,-1000.000,999.512
1737973556.190,-101.562,-202.637,-216.309,-202.637,169.922
1737973556.194,999.512,999.512,234.375,999.512,-1000.000
1737973556.198,999.512,999.512,-288.574,999.512,-1000.000
1737973556.200,231.445,224.121,-382.324,224.121,-284.180
1737973556.204,-1000.000,-1000.000,-1000.000,-1000.000,999.512
1737973556.208,-197.754,-197.266,-514.160,-197.754,168.945
1737973556.212,997.559,999.023,184.570,998.535,-1000.000
1737973556.216,999.512,999.512,-89.355,999.512,-1000.000
1737973556.220,323.242,335.938,-318.848,323.730,-404.785
1737973556.224,-1000.000,-1000.000,-996.582,-1000.000,999.512
1737973556.227,-206.543,-278.809,-608.398,-206.543,268.066
1737973556.231,999.512,977.539,260.742,999.512,-1000.000
1737973556.235,999.512,999.512,217.773,999.512,-1000.000
1737973556.239,516.113,518.555,-94.727,502.441,-624.023
1737973556.243,-1000.000,-1000.000,-876.465,-1000.000,967.285
1737973556.245,-294.434,-500.488,-697.754,-431.641,526.855
1737973556.249,999.512,914.062,130.859,943.359,-934.570
1737973556.253,999.512,999.512,-169.434,999.512,-1000.000
1737973556.257,717.773,695.312,-244.629,666.992,-833.008
1737973556.261,-897.461,-853.516,-685.059,-922.852,683.594
1737973556.265,-514.160,-752.930,-824.219,-652.344,713.379
1737973556.269,964.844,778.320,98.145,868.652,-851.074
1737973556.272,988.770,999.512,-117.188,999.512,-1000.000
1737973556.276,937.988,900.391,5.859,846.680,-1000.000
1737973556.280,-559.570,-461.914,-358.398,-582.520,277.344
1737973556.284,-713.379,-1000.000,-957.031,-965.820,958.008
1737973556.288,904.785,499.512,13.184,584.473,-612.305
1737973556.290,972.656,999.512,62.988,999.512,-1000.000
1737973556.294,999.512,999.512,-64.453,999.512,-1000.000
1737973556.298,-180.176,-105.469,-403.809,-191.406,5.371
1737973556.302,-993.164,-1000.000,-971.680,-1000.000,999.512
1737973556.336,51.270,45.898,-405.273,54.688,-69.824
1737973556.340,-1000.000,-1000.000,-1000.000,-1000.000,999.512
1737973556.344,-19.531,-210.938,-327.148,-177.246,172.852
1737973556.348,999.512,999.512,356.445,999.512,-1000.000
1737973556.352,909.668,936.035,-4.883,930.664,-966.797
1737973556.356,-39.062,-52.734,-443.848,-50.293,20.996
1737973556.360,-1000.000,-1000.000,-1000.000,-1000.000,999.512
1737973556.363,-197.266,-194.824,-344.727,-196.777,160.156
1737973556.367,994.141,992.188,226.074,994.629,-1000.000
1737973556.371,999.512,999.512,-248.535,999.512,-1000.000
1737973556.375,223.633,267.090,-379.883,224.121,-364.258
1737973556.379,-1000.000,-1000.000,-1000.000,-1000.000,999.512
1737973556.380,-193.359,-233.398,-576.172,-192.871,205.078
1737973556.384,992.188,983.887,180.664,993.164,-1000.000
1737973556.388,999.512,999.512,-74.219,999.512,-1000.000
1737973556.392,401.367,435.547,-238.281,408.203,-536.133
1737973556.396,-1000.000,-1000.000,-866.699,-1000.000,999.512
1737973556.400,-133.301,-328.125,-669.922,-232.422,420.410
1737973556.404,997.070,929.199,208.008,963.867,-970.215
1737973556.407,999.512,999.512,216.309,999.512,-1000.000
1737973556.411,613.281,635.254,-53.223,607.910,-781.250
1737973556.415,-1000.000,-950.195,-788.086,-1000.000,779.297
1737973556.419,-445.312,-641.113,-780.273,-549.316,622.559
1737973556.423,972.168,858.398,119.141,919.922,-914.551
1737973556.425,999.512,999.512,-58.594,999.512,-1000.000
1737973556.429,862.305,837.891,-126.465,845.703,-983.398
1737973556.433,-685.547,-600.586,-563.965,-648.438,411.621
1737973556.437,-679.688,-938.965,-899.902,-836.426,863.281
1737973556.441,911.133,610.352,12.207,746.094,-725.098
1737973556.445,975.586,999.512,-23.926,999.512,-1000.000
1737973556.449,999.512,989.258,96.680,999.512,-1000.000
1737973556.452,-269.531,-219.238,-274.902,-250.000,116.211
1737973556.456,-952.637,-1000.000,-1000.000,-1000.000,999.512
1737973556.460,652.344,291.504,-103.027,419.434,-403.809
1737973556.464,999.512,999.512,119.629,999.512,-1000.000
1737973556.468,999.512,999.512,-51.270,999.512,-1000.000
1737973556.470,-24.902,18.066,-423.340,-19.043,-114.258
1737973556.474,-1000.000,-1000.000,-1000.000,-1000.000,999.512
1737973556.478,334.961,69.336,-165.039,131.836,-95.215
1737973556.482,999.512,999.512,66.406,999.512,-1000.000
1737973556.486,999.512,999.512,-156.738,999.512,-1000.000
1737973556.490,194.336,204.590,-334.473,171.875,-232.422
1737973556.494,-1000.000,-1000.000,-1000.000,-1000.000,999.512
1737973556.497,107.910,-141.602,-265.137,-91.797,107.910
1737973556.501,999.512,999.512,156.738,999.512,-1000.000
1737973556.505,999.512,999.512,-66.406,999.512,-1000.000
1737973556.509,237.305,228.516,-217.773,231.934,-259.766
1737973556.513,-1000.000,-1000.000,-1000.000,-1000.000,999.512
1737973556.530,-101.562,-202.637,-409.668,-202.637,167.480
1737973556.534,999.512,999.512,291.992,999.512,-1000.000
1737973556.538,999.512,999.512,-54.688,999.512,-1000.000
1737973556.542,194.824,190.430,-418.945,187.500,-298.340
1737973556.546,-1000.000,-1000.000,-979.492,-1000.000,999.512
1737973556.550,-15.137,-13.672,-383.301,-16.113,-6.348
1737973556.554,978.027,978.027,247.559,980.469,-1000.000
1737973556.557,999.512,999.512,-68.848,999.512,-1000.000
1737973556.561,366.211,406.738,-258.301,333.496,-472.168
1737973556.565,-1000.000,-1000.000,-898.438,-1000.000,999.512
1737973556.569,-213.379,-329.590,-633.301,-272.949,320.801
1737973556.573,999.512,965.820,185.059,978.027,-997.559
1737973556.575,999.512,999.512,-0.977,999.512,-1000.000
1737973556.579,519.043,560.547,-143.066,519.043,-685.059
1737973556.583,-1000.000,-1000.000,-806.152,-1000.000,903.809
1737973556.587,-339.355,-552.246,-768.066,-467.285,537.598
1737973556.591,991.211,896.973,148.926,933.105,-948.242
1737973556.595,999.512,999.512,-51.758,999.512,-1000.000
1737973556.599,744.141,738.281,-169.922,732.422,-903.320
1737973556.602,-859.863,-764.648,-661.133,-837.891,513.184
1737973556.606,-581.543,-854.980,-825.195,-702.148,931.152
1737973556.610,937.988,675.781,105.469,847.168,-606.445
1737973556.614,991.211,999.512,-175.293,999.512,-1000.000
1737973556.618,957.031,926.270,-231.445,937.988,-1000.000
1737973556.620,-475.098,-379.395,-515.137,-438.965,234.375
1737973556.624,-852.539,-1000.000,-933.105,-977.539,999.512
1737973556.628,732.422,375.000,-75.195,569.336,-436.523
1737973556.632,999.512,999.512,16.113,999.512,-1000.000
1737973556.636,898.438,877.441,-8.301,880.859,-921.387
1737973556.640,-402.344,-341.309,-407.715,-367.676,258.789
1737973556.644,-1000.000,-1000.000,-982.422,-1000.000,999.512
1737973556.647,440.918,149.414,-164.551,243.164,-208.496
1737973556.651,999.512,999.512,219.727,999.512,-1000.000
1737973556.655,999.512,999.512,82.520,999.512,-1000.000
1737973556.659,125.488,147.461,-362.305,131.348,-217.285
1737973556.663,-1000.000,-1000.000,-1000.000,-1000.000,999.512
1737973556.665,118.164,-80.566,-233.398,16.113,45.898
1737973556.669,999.512,999.512,69.336,999.512,-1000.000
1737973556.673,999.512,999.512,-252.930,999.512,-1000.000
1737973556.677,234.863,232.422,-378.418,239.258,-262.695
1737973556.681,-1000.000,-1000.000,-1000.000,-1000.000,999.512
1737973556.685,-81.055,-202.637,-356.934,-202.637,155.273
1737973556.689,999.512,999.512,191.895,999.512,-1000.000
1737973556.692,999.512,999.512,20.996,999.512,-1000.000
1737973556.696,232.910,224.121,-126.953,224.121,-256.836
1737973556.700,-1000.000,-1000.000,-1000.000,-1000.000,999.512
1737973556.704,-197.754,-197.266,-445.312,-200.195,163.086
1737973556.708,997.559,998.535,291.504,999.512,-1000.000
1737973556.710,999.512,999.512,1.465,999.512,-1000.000
1737973556.714,323.242,333.984,-224.609,266.602,-441.406
1737973556.718,-1000.000,-1000.000,-999.023,-1000.000,999.512
1737973556.722,-208.496,-257.812,-512.207,-200.195,331.055
1737973556.726,999.512,985.352,288.574,998.047,-984.375
1737973556.730,999.512,999.512,-45.410,999.512,-1000.000
1737973556.734,445.801,489.258,-217.773,430.664,-551.758
1737973556.737,-1000.000,-1000.000,-840.332,-1000.000,999.512
1737973556.741,-226.562,-468.262,-713.379,-416.992,441.406
1737973556.745,999.512,922.852,114.258,933.105,-970.703
1737973556.749,999.512,999.512,-94.238,999.512,-1000.000
1737973556.753,625.977,665.527,-208.496,597.656,-852.539
1737973556.755,-1000.000,-896.484,-737.305,-998.535,676.270
1737973556.759,-459.473,-721.191,-835.938,-634.766,687.500
1737973556.763,968.262,797.852,153.320,865.234,-874.512
1737973556.767,999.512,999.512,26.855,999.512,-1000.000
1737973556.771,861.328,869.629,-120.117,832.031,-980.469
1737973556.775,-682.617,-520.996,-557.617,-626.953,315.430
1737973556.779,-698.242,-1000.000,-866.699,-908.691,999.512
1737973556.782,898.926,521.484,112.793,655.273,-427.734
1737973556.786,980.469,999.512,43.457,999.512,-1000.000
1737973556.790,999.512,999.512,-26.855,999.512,-1000.000
1737973556.794,-256.348,-164.062,-393.555,-208.984,52.734
1737973556.798,-998.535,-1000.000,-998.535,-1000.000,999.512
1737973556.800,594.727,211.914,-105.469,340.332,-257.324
1737973556.804,999.512,999.512,67.383,999.512,-1000.000
1737973556.808,999.512,999.512,57.617,999.512,-1000.000
1737973556.812,12.207,60.059,-241.211,21.973,-160.156
1737973556.816,-1000.000,-1000.000,-1000.000,-1000.000,999.512
1737973556.820,232.422,11.719,-203.613,113.770,-0.488
1737973556.824,999.512,999.512,301.270,999.512,-1000.000
1737973556.827,999.512,999.512,133.789,999.512,-1000.000
1737973556.831,213.867,201.660,-319.824,218.262,-254.883
1737973556.835,-1000.000,-1000.000,-1000.000,-1000.000,999.512
1737973556.839,89.355,-85.938,-160.156,-13.184,127.441
1737973556.843,999.512,999.512,304.199,999.512,-1000.000
1737973556.845,999.512,999.512,-0.977,999.512,-1000.000
1737973556.849,241.211,228.516,-224.609,234.375,-258.789
1737973556.853,-1000.000,-1000.000,-1000.000,-1000.000,999.512
1737973556.857,-202.637,-201.172,-421.875,-202.637,166.992
1737973556.861,999.512,999.512,246.094,999.512,-1000.000
1737973556.865,999.512,999.512,21.973,999.512,-1000.000
1737973556.869,223.633,253.906,-178.711,224.121,-341.797
1737973556.872,-1000.000,-1000.000,-1000.000,-1000.000,999.512
1737973556.876,-193.359,-221.191,-601.562,-193.848,194.336
1737973556.880,993.652,989.258,253.418,995.117,-1000.000
1737973556.884,999.512,999.512,-21.973,999.512,-1000.000
1737973556.888,419.922,432.617,-370.605,414.551,-520.996
1737973556.906,-1000.000,-1000.000,-990.234,-1000.000,999.512
1737973556.910,-221.191,-394.043,-621.094,-319.336,481.445
1737973556.914,999.512,945.801,204.102,974.121,-928.711
1737973556.918,999.512,999.512,-92.773,999.512,-1000.000
1737973556.922,608.398,611.816,-208.496,576.172,-691.406
1737973556.926,-1000.000,-979.980,-762.207,-1000.000,865.723
1737973556.930,-380.371,-603.516,-779.785,-541.992,627.441
1737973556.933,997.559,882.324,146.484,910.645,-890.625
1737973556.937,999.512,999.512,-0.977,999.512,-1000.000
1737973556.941,841.797,805.176,-18.066,772.949,-966.797
1737973556.945,-728.027,-664.551,-549.805,-743.164,443.848
1737973556.949,-620.605,-898.438,-904.297,-820.312,843.262
1737973556.950,939.453,651.367,83.008,736.328,-748.535
1737973556.954,973.145,999.512,39.062,999.512,-1000.000
1737973556.958,999.512,975.098,-91.797,949.707,-1000.000
1737973556.962,-346.191,-261.230,-473.633,-350.586,91.309
1737973556.966,-870.117,-1000.000,-937.500,-1000.000,999.512
1737973556.970,753.418,312.988,2.930,417.480,-274.414
1737973556.974,999.512,999.512,82.031,999.512,-1000.000
1737973556.977,999.512,999.512,-71.777,999.512,-1000.000
1737973556.981,-68.848,-7.324,-386.719,-76.660,-54.688
1737973556.985,-1000.000,-1000.000,-1000.000,-1000.000,999.512
1737973556.989,417.969,90.332,-198.730,135.742,-144.043
1737973556.993,999.512,999.512,129.883,999.512,-1000.000
1737973556.995,999.512,999.512,96.191,999.512,-1000.000
1737973556.999,188.477,200.195,-229.980,134.766,-239.746
1737973557.003,-1000.000,-1000.000,-1000.000,-1000.000,999.512
1737973557.007,102.051,-126.953,-247.070,-86.426,99.121
1737973557.011,999.512,999.512,301.758,999.512,-1000.000
1737973557.015,995.605,999.512,-2.930,965.332,-1000.000
1737973557.019,148.926,141.602,-331.543,51.270,-172.852
1737973557.022,-1000.000,-1000.000,-1000.000,-1000.000,999.512
1737973557.026,-101.562,-202.637,-253.906,-201.172,169.922
1737973557.030,999.512,999.512,352.051,999.023,-1000.000
1737973557.034,999.512,999.512,-163.574,999.512,-1000.000
1737973557.038,231.445,224.121,-370.117,224.121,-285.645
1737973557.040,-1000.000,-1000.000,-1000.000,-1000.000,999.512
1737973557.044,-197.754,-196.289,-550.781,-197.266,166.992
1737973557.048,996.094,996.094,195.312,996.582,-1000.000
1737973557.052,999.512,999.512,-54.688,999.512,-1000.000
1737973557.056,304.688,340.332,-342.773,305.664,-454.590
1737973557.060,-1000.000,-1000.000,-991.211,-1000.000,999.512
1737973557.064,-118.164,-236.816,-636.719,-121.582,329.590
1737973557.067,988.770,951.172,229.980,988.770,-988.770
1737973557.071,999.512,999.512,152.344,999.512,-1000.000
1737973557.075,521.484,538.574,-193.359,525.879,-646.973
1737973557.079,-1000.000,-1000.000,-878.906,-1000.000,938.477
1737973557.083,-339.355,-539.062,-733.398,-436.035,571.289
1737973557.085,990.723,900.879,167.969,950.195,-919.922
1737973557.089,999.512,999.512,0.000,999.512,-1000.000
1737973557.093,744.629,751.953,-125.488,736.816,-887.207
1737973557.097,-859.863,-769.531,-650.391,-846.191,596.191
1737973557.101,-581.543,-798.828,-839.355,-669.434,756.836
1737973557.105,937.988,747.559,156.250,882.812,-815.430
1737973557.109,990.723,999.512,103.027,999.512,-1000.000
1737973557.112,959.961,937.500,184.082,939.453,-1000.000
1737973557.116,-484.863,-377.930,-319.824,-438.965,289.551
1737973557.120,-816.406,-1000.000,-969.727,-983.887,988.281
1737973557.124,801.758,442.871,3.906,589.844,-563.477
1737973557.128,992.188,999.512,96.680,999.512,-1000.000
1737973557.130,999.512,999.512,4.395,999.512,-1000.000
1737973557.134,-138.184,-88.867,-386.230,-116.211,-30.762
1737973557.138,-1000.000,-1000.000,-978.516,-1000.000,999.512
1737973557.142,505.859,166.992,-72.266,238.281,-128.906
1737973557.146,999.512,999.512,106.934,999.512,-1000.000
1737973557.150,999.512,999.512,17.578,999.512,-1000.000
1737973557.154,115.723,135.254,-271.484,108.887,-168.945
1737973557.157,-1000.000,-1000.000,-1000.000,-1000.000,999.512
1737973557.161,199.219,-38.574,-238.281,19.043,15.625
1737973557.165,999.512,999.512,161.133,999.512,-1000.000
1737973557.169,999.512,999.512,-41.016,999.512,-1000.000
1737973557.173,232.422,235.352,-300.781,239.258,-264.160
1737973557.176,-1000.000,-1000.000,-1000.000,-1000.000,999.512
1737973557.180,-13.672,-200.684,-295.410,-202.637,146.973
1737973557.184,999.512,999.512,378.906,999.512,-1000.000
1737973557.188,999.512,999.512,76.660,999.512,-1000.000
1737973557.192,237.793,224.121,-328.613,224.121,-279.297
1737973557.196,-1000.000,-1000.000,-1000.000,-1000.000,999.512
1737973557.200,-202.637,-200.195,-390.625,-202.637,197.754
1737973557.203,999.512,999.512,208.496,999.512,-1000.000
1737973557.207,999.512,999.512,-272.461,999.512,-1000.000
1737973557.211,228.516,278.809,-428.223,224.121,-373.047
1737973557.215,-1000.000,-1000.000,-1000.000,-1000.000,999.512
1737973557.219,-193.848,-256.348,-631.348,-193.359,223.633
1737973557.220,994.141,978.516,127.930,995.117,-1000.000
1737973557.224,999.512,999.512,-90.332,999.512,-1000.000
1737973557.228,427.734,471.680,-252.441,430.176,-566.406
1737973557.232,-1000.000,-1000.000,-868.652,-1000.000,999.512
1737973557.236,-223.145,-448.730,-724.121,-400.879,461.426
1737973557.240,999.512,929.688,199.219,939.941,-961.426
1737973557.244,999.512,999.512,222.656,999.512,-1000.000
1737973557.247,660.645,672.363,-46.875,599.121,-858.398
1737973557.251,-967.773,-899.414,-762.695,-1000.000,671.875
1737973557.255,-466.309,-687.988,-784.180,-597.656,665.039
1737973557.259,970.215,830.566,124.512,889.160,-897.461
1737973557.263,999.512,999.512,-33.691,999.512,-1000.000
1737973557.280,861.816,873.047,3.906,837.402,-999.512
1737973557.284,-683.105,-528.809,-454.102,-633.301,362.305
1737973557.288,-696.289,-985.840,-917.480,-886.230,912.109
1737973557.292,892.090,549.316,-18.066,675.293,-658.691
1737973557.296,998.535,999.512,8.789,999.512,-1000.000
1737973557.300,979.980,945.312,12.695,957.031,-1000.000
1737973557.304,-344.727,-252.441,-403.809,-304.688,148.926
1737973557.307,-987.305,-1000.000,-981.445,-1000.000,999.512
1737973557.311,594.727,223.633,-140.625,381.836,-319.336
1737973557.315,999.512,999.512,228.516,999.512,-1000.000
1737973557.319,999.512,999.512,174.805,999.512,-1000.000
1737973557.323,12.207,52.246,-373.047,21.484,-151.367
1737973557.325,-1000.000,-1000.000,-1000.000,-1000.000,999.512
1737973557.329,232.422,20.996,-189.453,131.348,-53.711
1737973557.333,999.512,999.512,65.430,999.512,-1000.000
1737973557.337,999.512,999.512,-169.434,999.512,-1000.000
1737973557.370,999.512,999.512,242.676,999.512,-1000.000
1737973557.374,999.512,999.512,-90.332,999.512,-1000.000
1737973557.378,224.609,249.512,-390.137,224.121,-360.840
1737973557.382,-1000.000,-1000.000,-1000.000,-1000.000,999.512
1737973557.386,-193.359,-211.426,-513.184,-194.336,223.633
1737973557.390,993.652,992.188,217.285,996.094,-1000.000
1737973557.394,999.512,999.512,-92.773,999.512,-1000.000
1737973557.397,419.922,428.711,-324.219,399.414,-486.816
1737973557.401,-1000.000,-1000.000,-945.801,-1000.000,999.512
1737973557.405,-221.191,-389.648,-649.902,-316.895,352.051
1737973557.409,999.512,947.266,136.719,972.656,-990.723
1737973557.413,999.512,999.512,-37.109,999.512,-1000.000
1737973557.415,607.422,610.352,-140.625,560.059,-745.605
1737973557.419,-1000.000,-983.398,-770.996,-1000.000,832.031
1737973557.423,-357.422,-582.520,-789.062,-536.621,576.660
1737973557.427,998.535,888.184,171.387,899.902,-935.547
1737973557.431,999.512,999.512,85.938,999.512,-1000.000
1737973557.435,770.996,754.395,-35.645,690.918,-915.039
1737973557.439,-839.844,-750.977,-611.816,-865.234,480.469
1737973557.442,-587.402,-879.395,-826.660,-803.223,963.379
1737973557.446,940.918,659.668,153.809,731.445,-572.754
1737973557.450,986.816,999.512,-74.219,999.512,-1000.000
1737973557.454,971.191,968.262,-174.316,929.688,-1000.000
1737973557.458,-480.957,-316.406,-503.418,-429.688,182.617
1737973557.461,-803.711,-1000.000,-936.523,-1000.000,999.512
1737973557.465,843.262,424.805,-4.883,535.645,-506.348
1737973557.469,988.281,999.512,66.895,999.512,-1000.000
1737973557.473,999.512,999.512,145.020,999.512,-1000.000
1737973557.477,-155.762,-65.918,-224.121,-118.164,5.371
1737973557.481,-999.512,-1000.000,-985.840,-1000.000,999.512
1737973557.485,600.586,281.250,-85.449,349.609,-185.059
1737973557.488,999.512,999.512,283.691,999.512,-1000.000
1737973557.492,999.512,999.512,217.773,999.512,-1000.000
1737973557.496,130.859,190.430,-291.016,138.184,-231.934
1737973557.500,-1000.000,-1000.000,-1000.000,-1000.000,999.512
1737973557.504,118.164,-122.070,-229.004,-33.203,88.379
1737973557.505,999.512,999.512,245.117,999.512,-1000.000
1737973557.509,999.512,999.512,41.016,999.512,-1000.000
1737973557.513,218.750,211.426,-259.277,217.285,-242.188
1737973557.517,-1000.000,-1000.000,-1000.000,-1000.000,999.512
1737973557.521,-13.184,-114.746,-252.441,-114.258,78.125
1737973557.525,999.512,994.141,326.172,993.652,-1000.000
1737973557.529,999.512,999.512,186.035,999.512,-1000.000
1737973557.532,233.887,226.562,-36.621,226.562,-258.301
1737973557.536,-1000.000,-1000.000,-1000.000,-1000.000,999.512
1737973557.540,-197.754,-196.777,-477.051,-197.266,163.574
1737973557.544,997.559,998.047,310.059,998.535,-1000.000
1737973557.548,999.512,999.512,71.777,999.512,-1000.000
1737973557.550,323.242,355.469,-158.203,323.730,-421.387
1737973557.554,-1000.000,-1000.000,-975.586,-1000.000,999.512
1737973557.558,-206.543,-308.105,-558.105,-206.055,385.254
1737973557.562,999.512,968.262,275.391,999.512,-956.543
1737973557.566,999.512,999.512,-41.016,999.512,-1000.000
1737973557.570,519.043,521.484,-205.566,523.438,-557.129
1737973557.574,-1000.000,-1000.000,-831.543,-1000.000,999.512
1737973557.577,-339.355,-528.320,-737.305,-436.035,501.953
1737973557.581,990.723,899.902,131.348,949.707,-942.383
1737973557.585,999.512,999.512,-35.156,999.512,-1000.000
1737973557.589,744.141,703.613,-131.836,730.957,-878.906
1737973557.593,-860.840,-820.312,-696.289,-853.027,614.258
1737973557.595,-568.359,-812.500,-877.441,-667.480,757.324
1737973557.599,943.359,710.938,99.121,878.418,-815.918
1737973557.603,991.699,999.512,29.297,999.512,-1000.000
1737973557.607,952.148,895.020,-111.816,906.250,-1000.000
1737973557.611,-508.789,-447.266,-556.641,-490.234,212.402
1737973557.615,-784.668,-1000.000,-902.344,-977.051,999.512
1737973557.619,832.520,431.641,38.086,587.402,-344.238
1737973557.622,987.305,999.512,-45.410,999.512,-1000.000
1737973557.626,999.512,999.512,-148.438,999.512,-1000.000
1737973557.630,-175.781,-124.023,-424.316,-150.879,35.645
1737973557.634,-998.047,-1000.000,-1000.000,-1000.000,999.512
1737973557.638,588.379,169.922,-171.875,238.281,-259.277
1737973557.655,999.512,999.512,168.457,999.512,-1000.000
1737973557.659,999.512,999.512,240.723,999.512,-1000.000
1737973557.663,114.746,122.070,-188.477,64.453,-202.148
1737973557.667,-1000.000,-1000.000,-1000.000,-1000.000,999.512
1737973557.671,219.727,-11.230,-213.867,24.414,-11.230
1737973557.675,999.512,999.512,334.961,999.512,-1000.000
1737973557.679,999.512,999.512,296.387,999.512,-1000.000
1737973557.682,232.422,235.840,-181.641,239.258,-267.578
1737973557.686,-1000.000,-1000.000,-1000.000,-1000.000,999.512
1737973557.690,0.977,-187.012,-196.777,-198.242,162.598
1737973557.694,999.512,999.512,383.789,999.512,-1000.000
1737973557.698,999.512,999.512,182.129,999.512,-1000.000
1737973557.700,238.770,225.586,-104.980,224.121,-270.996
1737973557.704,-1000.000,-1000.000,-1000.000,-1000.000,999.512
1737973557.708,-203.125,-200.684,-461.426,-202.637,168.457
1737973557.712,999.512,999.512,242.676,999.512,-1000.000
1737973557.716,999.512,999.512,-41.504,999.512,-1000.000
1737973557.720,223.633,269.531,-313.965,224.121,-355.469
1737973557.724,-1000.000,-1000.000,-1000.000,-1000.000,999.512
1737973557.727,-193.359,-257.324,-666.992,-193.359,227.051
1737973557.731,993.652,978.027,209.961,994.629,-1000.000
1737973557.735,999.512,999.512,115.723,999.512,-1000.000
1737973557.739,419.922,446.777,-288.574,428.223,-533.203
1737973557.743,-1000.000,-1000.000,-960.938,-1000.000,999.512
1737973557.746,-221.191,-451.660,-695.312,-354.004,461.914
1737973557.750,999.512,921.875,147.461,960.449,-945.801
1737973557.754,999.512,999.512,-5.859,999.512,-1000.000
1737973557.758,611.328,629.395,-160.645,603.027,-736.816
1737973557.762,-1000.000,-937.988,-763.672,-1000.000,812.500
1737973557.766,-456.543,-691.406,-820.312,-566.406,667.969
1737973557.770,967.773,811.523,130.371,908.691,-856.934
1737973557.773,999.512,999.512,-32.227,999.512,-1000.000
1737973557.777,861.816,832.031,4.883,844.238,-902.344
1737973557.781,-682.617,-587.402,-450.684,-647.949,492.188
1737973557.785,-698.242,-979.492,-937.012,-837.402,930.664
1737973557.789,898.926,554.199,45.410,748.535,-622.070
1737973557.790,979.980,999.512,70.801,999.512,-1000.000
1737973557.794,999.512,994.141,-19.043,999.512,-1000.000
1737973557.798,-263.184,-195.801,-426.758,-222.656,62.012
1737973557.802,-973.145,-1000.000,-969.727,-1000.000,999.512
1737973557.806,627.441,261.719,-42.480,421.875,-356.445
1737973557.810,999.512,999.512,217.285,999.512,-1000.000
1737973557.814,999.512,999.512,259.277,999.512,-1000.000
1737973557.817,-11.719,55.664,-193.359,22.461,-116.211
1737973557.821,-1000.000,-1000.000,-1000.000,-1000.000,999.512
1737973557.825,364.258,73.242,-160.156,130.371,-119.629
1737973557.829,999.512,999.512,262.695,999.512,-1000.000
1737973557.833,999.512,999.512,222.656,999.512,-1000.000
1737973557.835,226.562,222.656,-201.660,221.680,-252.930
1737973557.839,-1000.000,-1000.000,-1000.000,-1000.000,999.512
1737973557.843,89.844,-147.949,-260.742,-98.633,110.352
1737973557.847,999.512,999.512,359.375,999.512,-1000.000
1737973557.851,999.512,999.512,159.668,999.512,-1000.000
1737973557.855,240.234,228.027,-218.750,231.934,-259.766
1737973557.859,-1000.000,-1000.000,-1000.000,-1000.000,999.512
1737973557.862,-152.344,-202.637,-300.293,-202.637,167.480
1737973557.866,999.512,999.512,350.098,999.512,-1000.000
1737973557.870,999.512,999.512,-197.754,999.512,-1000.000
1737973557.874,227.539,228.027,-446.777,224.121,-322.266
1737973557.878,-1000.000,-1000.000,-1000.000,-1000.000,999.512
1737973557.880,-197.266,-216.309,-610.352,-196.289,186.523
1737973557.884,997.070,990.723,19.531,997.070,-1000.000
1737973557.888,999.512,999.512,-231.445,999.512,-1000.000
1737973557.892,335.938,374.512,-413.086,358.398,-470.703
1737973557.896,-1000.000,-1000.000,-1000.000,-1000.000,999.512
1737973557.900,-207.520,-387.695,-704.102,-310.547,385.742
1737973557.904,999.512,937.012,197.754,969.238,-968.750
1737973557.907,999.512,999.512,103.516,999.512,-1000.000
1737973557.911,558.594,558.105,-206.055,517.578,-682.617
1737973557.915,-1000.000,-1000.000,-824.707,-1000.000,877.930
1737973557.919,-348.633,-579.590,-730.957,-526.367,654.297
1737973557.923,999.512,886.719,145.996,902.344,-859.863
1737973557.925,999.512,999.512,-37.109,999.512,-1000.000
1737973557.929,816.895,791.992,-73.242,722.656,-935.547
1737973557.933,-765.137,-697.754,-588.867,-818.359,505.859
1737973557.937,-597.168,-856.934,-876.953,-781.738,792.480
1737973557.941,945.801,696.289,71.289,760.742,-799.805
1737973557.945,978.027,999.512,56.152,999.512,-1000.000
1737973557.949,998.535,972.656,170.898,926.270,-1000.000
1737973557.952,-397.461,-290.527,-288.574,-417.969,132.812
1737973557.956,-864.258,-1000.000,-981.445,-1000.000,999.512
1737973557.960,753.418,379.883,-34.180,484.375,-495.117
1737973557.964,999.512,999.512,80.566,999.512,-1000.000
1737973557.968,999.512,999.512,-48.828,999.512,-1000.000
1737973557.971,-121.582,-28.320,-392.090,-89.355,-60.059
1737973557.975,-1000.000,-1000.000,-983.887,-1000.000,999.512
1737973557.979,419.434,120.117,-109.863,214.355,-57.617
1737973557.983,999.512,999.512,81.055,999.512,-1000.000
1737973557.987,999.512,999.512,-89.844,999.512,-1000.000
1737973557.991,125.000,178.223,-312.012,130.859,-212.891
1737973557.995,-1000.000,-1000.000,-1000.000,-1000.000,999.512
1737973557.998,118.164,-99.609,-261.230,9.277,80.566
1737973558.002,999.512,999.512,107.910,999.512,-1000.000
1737973558.006,999.512,999.512,-71.289,999.512,-1000.000
1737973558.010,237.305,231.445,-248.047,238.770,-261.230
1737973558.014,-1000.000,-1000.000,-1000.000,-1000.000,999.512
1737973558.031,-101.562,-202.637,-381.836,-202.637,161.133
1737973558.035,999.512,999.512,294.434,999.512,-1000.000
1737973558.039,999.512,999.512,-68.359,999.512,-1000.000
1737973558.043,231.445,224.121,-424.316,224.121,-296.387
1737973558.047,-1000.000,-1000.000,-1000.000,-1000.000,999.512
1737973558.051,-198.242,-198.730,-435.059,-197.266,211.426
1737973558.055,998.047,999.512,178.223,998.535,-1000.000
1737973558.058,999.512,999.512,-297.363,999.512,-1000.000
1737973558.062,317.383,309.570,-472.168,323.730,-397.949
1737973558.066,-1000.000,-1000.000,-1000.000,-1000.000,999.512
1737973558.070,-205.566,-301.758,-649.414,-206.055,262.207
1737973558.074,999.023,963.867,104.492,999.512,-1000.000
1737973558.075,999.512,999.512,-123.047,999.512,-1000.000
1737973558.079,513.672,530.762,-242.676,513.672,-638.672
1737973558.083,-1000.000,-1000.000,-813.965,-1000.000,958.496
1737973558.087,-257.324,-482.910,-721.680,-433.594,477.539
1737973558.091,999.512,931.641,188.965,946.777,-971.191
1737973558.095,999.512,999.512,91.797,999.512,-1000.000
1737973558.099,749.023,763.672,-0.488,701.660,-902.832
1737973558.102,-869.141,-783.691,-619.141,-884.766,567.383
1737973558.106,-488.281,-728.027,-747.559,-661.133,821.777
1737973558.110,986.816,824.707,277.344,876.465,-749.023
1737973558.114,972.656,999.512,79.102,999.512,-1000.000
1737973558.118,973.633,944.336,73.242,899.902,-1000.000
1737973558.120,-509.277,-397.461,-382.324,-499.512,254.883
1737973558.124,-718.750,-1000.000,-909.180,-976.074,954.102
1737973558.128,901.367,523.438,14.648,586.914,-615.234
1737973558.132,978.516,999.512,-36.621,999.512,-1000.000
1737973558.136,999.512,999.512,-27.344,999.512,-1000.000
1737973558.140,-220.215,-102.539,-342.773,-176.270,30.273
1737973558.144,-983.398,-1000.000,-969.238,-1000.000,999.512
1737973558.147,610.840,179.688,-133.789,324.707,-260.742
1737973558.151,999.512,999.512,115.234,999.512,-1000.000
1737973558.155,999.512,999.512,-66.406,999.512,-1000.000
1737973558.159,20.020,66.895,-479.980,29.785,-171.387
1737973558.163,-1000.000,-1000.000,-1000.000,-1000.000,999.512
1737973558.165,184.570,-50.293,-233.398,40.039,31.738
1737973558.169,999.512,999.512,7.324,999.512,-1000.000
1737973558.173,999.512,999.512,-283.203,999.512,-1000.000
1737973558.177,229.980,219.238,-420.410,236.816,-252.930
1737973558.181,-1000.000,-1000.000,-1000.000,-1000.000,999.512
1737973558.185,0.977,-196.289,-299.316,-164.062,149.414
1737973558.189,999.512,999.512,97.656,999.512,-1000.000
1737973558.192,999.512,999.512,-219.238,999.512,-1000.000
1737973558.196,238.770,224.609,-270.020,227.051,-257.324
1737973558.200,-1000.000,-1000.000,-1000.000,-1000.000,999.512
1737973558.204,-203.125,-200.684,-495.117,-202.637,165.527
1737973558.208,999.512,999.512,115.723,999.512,-1000.000
1737973558.210,999.512,999.512,-277.832,999.512,-1000.000
1737973558.214,223.633,261.719,-498.047,224.121,-381.348
1737973558.218,-1000.000,-1000.000,-1000.000,-1000.000,999.512
1737973558.222,-193.359,-250.977,-527.344,-193.359,326.660
1737973558.226,993.652,979.004,72.266,994.629,-976.562
1737973558.230,999.512,999.512,-304.199,999.512,-1000.000
1737973558.234,419.922,458.496,-343.750,426.758,-509.277
1737973558.237,-1000.000,-1000.000,-853.516,-1000.000,999.512
1737973558.241,-220.215,-400.391,-626.953,-325.195,371.094
1737973558.245,999.512,949.219,172.852,972.656,-1000.000
1737973558.249,999.512,999.512,183.105,999.512,-1000.000
1737973558.253,670.410,691.895,125.488,605.469,-897.949
1737973558.256,-976.562,-919.922,-632.812,-1000.000,644.531
1737973558.260,-373.535,-579.102,-691.895,-549.316,585.938
1737973558.264,999.512,924.316,271.973,919.434,-968.750
1737973558.268,987.793,999.512,243.164,999.512,-1000.000
1737973558.272,869.629,893.555,179.199,845.703,-1000.000
1737973558.276,-685.547,-521.484,-497.559,-647.949,304.688
1737973558.280,-694.336,-962.402,-839.844,-836.426,999.512
1737973558.283,885.254,582.520,61.523,746.094,-527.344
1737973558.287,999.512,999.512,-235.352,999.512,-1000.000
1737973558.291,938.965,947.754,-408.691,999.512,-1000.000
1737973558.295,-438.965,-273.438,-610.352,-250.977,106.934
1737973558.299,-984.375,-1000.000,-975.586,-1000.000,999.512
1737973558.300,591.309,180.664,-293.457,422.363,-233.398
1737973558.304,999.512,999.512,-337.891,999.512,-1000.000
1737973558.308,999.512,999.512,-321.777,999.512,-1000.000
1737973558.312,-90.332,-44.434,-448.242,19.043,-27.832
1737973558.316,-1000.000,-1000.000,-1000.000,-1000.000,999.512
1737973558.320,243.164,8.789,-268.555,130.371,7.324
1737973558.324,999.512,999.512,89.355,999.512,-1000.000
1737973558.327,999.512,999.512,-48.340,999.512,-1000.000
1737973558.331,220.215,203.125,-370.117,213.379,-238.770
1737973558.335,-1000.000,-1000.000,-1000.000,-1000.000,999.512
1737973558.339,103.516,-134.766,-196.777,-97.656,106.934
1737973558.343,999.512,999.512,206.543,999.512,-1000.000
1737973558.345,999.512,999.512,-96.680,999.512,-1000.000
1737973558.349,237.305,229.004,-249.023,231.934,-259.766
1737973558.353,-1000.000,-1000.000,-1000.000,-1000.000,999.512
1737973558.357,-101.562,-202.637,-396.484,-202.637,162.598
1737973558.405,-1000.000,-1000.000,-936.523,-1000.000,999.512
1737973558.409,-210.449,-329.102,-481.934,-267.578,420.898
1737973558.413,999.512,969.727,316.406,983.887,-956.543
1737973558.417,999.512,999.512,116.699,999.512,-1000.000
1737973558.421,606.934,639.648,71.777,520.020,-725.586
1737973558.425,-1000.000,-966.797,-663.574,-1000.000,850.098
1737973558.429,-357.910,-533.691,-688.965,-483.887,550.781
1737973558.432,998.047,925.293,208.008,924.805,-938.965
1737973558.436,999.512,999.512,-47.363,999.512,-1000.000
1737973558.440,744.141,774.902,-54.688,726.562,-818.359
1737973558.444,-857.910,-715.332,-504.395,-821.777,676.270
1737973558.448,-596.191,-882.812,-902.344,-770.996,791.992
1737973558.450,914.062,639.160,-128.906,772.461,-760.254
1737973558.454,999.512,999.512,-305.176,999.512,-1000.000
1737973558.458,848.145,853.027,-460.938,949.219,-1000.000
1737973558.462,-656.250,-513.672,-707.520,-474.609,270.020
1737973558.466,-832.520,-1000.000,-906.738,-885.742,999.512
1737973558.470,797.363,427.246,-244.141,763.184,-474.609
