timestamps,TP9,AF7,AF8,TP10,Right AUX
1738231431.180,-27.832,-21.484,-24.414,-23.926,-118.652
1738231431.184,-7.324,-20.508,-16.602,-9.277,-314.941
1738231431.188,-33.691,-25.879,-24.414,-10.742,-106.934
1738231431.192,-40.527,-35.156,-28.320,-58.594,284.668
1738231431.196,-26.855,-28.809,-24.414,-79.590,-3.906
1738231431.200,-11.230,-24.414,-29.785,-60.059,-247.070
1738231431.204,-3.418,-20.996,-30.273,-23.438,-21.973
1738231431.207,-16.113,-19.531,-35.156,-9.277,435.547
1738231431.211,-32.227,-24.414,-22.461,19.043,438.965
1738231431.215,-20.996,-23.926,3.418,37.598,-205.566
1738231431.219,-24.414,-14.160,-2.441,19.043,-282.715
1738231431.223,-52.734,-17.578,-11.719,-5.859,-56.152
1738231431.213,-41.016,-21.973,-6.348,21.484,-113.770
1738231431.217,-17.090,-20.508,-1.465,31.738,-155.762
1738231431.221,-15.625,-26.367,-3.418,-2.930,-106.934
1738231431.225,-18.555,-25.879,-5.859,2.930,-65.430
1738231431.229,-15.625,-20.508,-4.883,20.996,-239.746
1738231431.233,-30.273,-22.461,-9.766,39.062,-152.344
1738231431.237,-24.902,-21.484,-10.742,31.250,143.066
1738231431.240,-4.395,-17.090,-7.812,11.230,52.734
1738231431.244,-0.488,-19.531,-9.766,4.883,-266.602
1738231431.248,-4.883,-23.926,-16.113,19.531,-316.895
1738231431.252,-19.531,-24.902,-24.414,45.898,124.023
1738231431.256,-4.395,-19.531,-17.090,47.852,384.766
1738231431.256,14.648,-15.137,-8.301,29.785,-123.535
1738231431.260,8.789,-17.578,-16.113,22.949,-190.430
1738231431.264,-9.766,-19.531,-20.508,17.578,227.051
1738231431.268,-28.320,-19.531,-12.695,33.203,210.449
1738231431.272,-16.602,-18.555,-11.719,29.785,-59.082
1738231431.276,9.277,-17.578,-16.602,16.602,-7.812
1738231431.280,1.465,-15.625,-21.484,23.926,363.281
1738231431.283,-28.809,-19.043,-21.484,15.625,617.676
1738231431.287,-35.156,-34.668,-14.648,27.344,209.473
1738231431.291,12.695,-29.785,-21.484,67.383,-64.453
1738231431.295,18.066,-2.441,-26.855,39.551,-20.996
1738231431.299,-8.301,0.977,-25.879,-6.348,-245.605
1738231431.330,-3.906,-14.648,-24.902,6.348,-330.566
1738231431.334,-11.230,-9.277,-31.738,38.574,-157.227
1738231431.338,-17.578,0.977,-39.062,24.414,-25.879
1738231431.342,1.953,-6.348,-39.551,17.090,-65.918
1738231431.346,6.348,-14.648,-47.852,27.832,-99.609
1738231431.350,-0.488,-7.324,-59.082,2.441,79.590
1738231431.354,-6.836,1.465,-63.965,11.230,625.488
1738231431.357,-2.441,4.883,-53.711,18.066,270.020
1738231431.361,14.160,12.207,-52.246,-1.465,-233.398
1738231431.365,35.645,15.625,-59.570,4.883,-143.066
1738231431.369,27.344,8.301,-62.500,-8.789,-198.242
1738231431.373,20.020,12.207,-68.359,0.000,-236.816
1738231431.360,17.090,18.555,-72.754,10.254,-88.867
1738231431.364,19.531,12.695,-72.754,-12.695,-12.695
1738231431.368,24.902,10.742,-69.336,-16.602,-140.625
1738231431.372,27.832,13.184,-68.359,-12.695,-97.168
1738231431.376,17.090,7.812,-67.871,8.789,-60.547
1738231431.380,28.320,10.254,-72.754,50.293,140.137
1738231431.384,45.410,20.996,-69.336,29.785,163.086
1738231431.387,24.414,15.625,-61.523,-9.766,-98.633
1738231431.391,24.902,6.348,-59.570,-10.742,-162.109
1738231431.395,14.648,4.395,-65.430,-3.906,252.930
1738231431.399,-7.324,2.930,-54.199,3.906,236.328
1738231431.403,4.395,2.930,-46.387,5.859,-178.711
1738231431.404,5.371,0.977,-56.152,-22.949,-211.914
1738231431.408,-8.301,-2.930,-61.523,-27.344,277.344
1738231431.412,-13.184,-3.906,-55.664,-3.906,155.273
1738231431.416,-23.926,-4.883,-50.293,-13.672,-238.770
1738231431.420,-21.973,-8.789,-54.199,-32.227,-123.047
1738231431.424,-7.812,-10.742,-52.734,-31.250,18.555
1738231431.428,-11.230,-10.254,-45.898,-41.504,-88.867
1738231431.431,-24.902,-8.789,-44.922,-31.250,-327.637
1738231431.435,-33.203,-6.836,-52.246,-8.301,12.695
1738231431.439,-30.762,-11.719,-49.805,-23.926,572.754
1738231431.443,-28.809,-19.531,-41.504,-54.688,25.879
1738231431.447,-28.320,-23.926,-37.598,-58.105,-372.070
1738231431.450,-41.016,-24.414,-36.621,-33.691,-164.062
1738231431.454,-48.340,-20.508,-33.691,-27.832,-43.457
1738231431.458,-28.809,-20.020,-37.598,-41.504,-89.355
1738231431.462,-20.996,-30.273,-43.945,-56.641,-26.855
1738231431.466,-32.227,-37.598,-51.758,-65.918,194.824
1738231431.470,-49.805,-32.715,-52.246,-66.895,118.652
1738231431.474,-46.875,-26.855,-44.434,-41.992,-40.527
1738231431.477,-42.480,-28.809,-47.363,-24.414,-38.086
1738231431.481,-42.969,-33.691,-51.758,-45.410,268.066
1738231431.485,-55.664,-33.691,-45.898,-65.430,77.148
1738231431.489,-74.707,-31.250,-47.363,-67.871,-292.969
1738231431.493,-55.664,-30.273,-59.570,-57.617,32.227
1738231431.511,-43.945,-33.691,-53.711,-62.988,125.000
1738231431.515,-61.523,-36.133,-47.363,-73.730,-144.531
1738231431.519,-55.664,-26.855,-53.223,-67.871,-276.367
1738231431.523,-52.734,-29.297,-59.082,-59.082,-173.340
1738231431.527,-64.453,-33.691,-57.617,-47.363,6.348
1738231431.531,-46.387,-30.762,-49.316,-49.805,0.977
1738231431.535,-32.227,-28.809,-48.828,-69.336,-103.516
1738231431.538,-37.598,-28.320,-46.875,-80.078,5.859
1738231431.542,-31.250,-29.297,-44.434,-67.871,182.617
1738231431.546,-12.695,-17.578,-57.617,-33.691,-104.980
1738231431.550,-32.227,-22.949,-48.828,-9.766,-189.941
1738231431.554,-53.223,-39.551,-29.297,-10.254,52.246
1738231431.571,-71.289,-41.504,-22.461,-28.320,-1.465
1738231431.575,-69.336,-34.180,-20.508,-65.918,-246.094
1738231431.579,-66.895,-39.062,-25.879,-100.586,-48.828
1738231431.583,-85.938,-55.664,-29.785,-91.309,434.082
1738231431.587,-90.332,-59.082,-15.625,-83.008,247.559
1738231431.591,-117.188,-69.336,3.418,-104.004,-151.367
1738231431.595,-120.605,-74.707,4.395,-115.234,19.531
1738231431.598,-132.324,-74.707,10.254,-123.047,136.719
1738231431.602,-147.949,-76.660,18.555,-110.840,-88.379
1738231431.606,-128.906,-71.777,21.484,-86.914,-279.297
1738231431.610,-144.043,-82.031,22.461,-98.633,-283.691
1738231431.614,-133.789,-88.867,15.625,-91.797,229.004
1738231431.586,-146.973,-82.031,20.996,-99.121,229.004
1738231431.590,-137.207,-75.195,19.531,-84.961,-177.246
1738231431.594,-109.375,-76.172,17.090,-82.520,-179.688
1738231431.598,-113.770,-82.520,15.137,-100.098,-203.613
1738231431.602,-103.516,-80.566,6.836,-91.309,-214.355
1738231431.606,-118.652,-67.871,4.395,-82.031,-165.527
1738231431.610,-104.004,-64.941,0.488,-58.105,64.941
1738231431.613,-92.285,-68.848,2.930,-53.711,138.184
1738231431.617,-92.285,-64.453,2.441,-60.547,-166.504
1738231431.621,-71.777,-61.035,-6.348,-47.363,-278.320
1738231431.625,-77.148,-59.570,-22.461,-39.551,-54.199
1738231431.629,-91.309,-56.152,-30.273,-35.645,-1.465
1738231431.630,-66.406,-41.992,-15.625,-38.574,-164.551
1738231431.634,-42.480,-31.738,-9.766,-31.250,-280.762
1738231431.638,-44.434,-34.180,-27.832,-11.230,114.258
1738231431.642,-45.898,-37.598,-35.156,-12.207,610.352
1738231431.646,-48.340,-35.645,-33.691,-6.836,75.684
1738231431.650,-60.059,-39.062,-36.621,-16.602,-67.383
1738231431.654,-36.133,-31.738,-38.086,-34.668,434.082
1738231431.657,-19.531,-29.785,-27.344,-26.855,322.266
1738231431.661,-48.828,-41.504,-17.578,-27.344,-108.398
1738231431.665,-69.824,-32.227,-31.738,-29.297,-133.301
1738231431.669,-39.551,-23.438,-37.598,-32.227,5.371
1738231431.673,-12.695,-19.531,-31.250,-35.645,-166.504
1738231431.677,-15.625,-22.461,-38.574,-36.621,-355.469
1738231431.681,-36.621,-29.785,-54.688,-32.715,-208.496
1738231431.685,-55.176,-29.785,-59.570,-12.207,334.473
1738231431.689,-39.551,-25.391,-37.598,-15.137,99.121
1738231431.693,-23.926,-24.902,-30.762,-41.992,-296.387
1738231431.697,-25.879,-26.855,-44.922,-42.969,-42.969
1738231431.701,-27.344,-30.762,-42.969,-35.156,97.168
1738231431.704,-36.133,-30.762,-39.551,-20.996,-128.906
1738231431.708,-13.184,-18.555,-47.852,-20.020,-316.895
1738231431.712,-4.395,-15.625,-42.969,-34.668,-69.824
1738231431.716,-31.250,-14.648,-33.203,-44.922,22.461
1738231431.720,-31.250,-11.719,-38.574,-40.039,-381.348
1738231431.735,-19.043,-15.625,-44.922,-21.484,-288.574
1738231431.739,-9.766,-19.531,-36.133,-22.949,-98.145
1738231431.743,-10.254,-17.578,-35.645,-34.668,-171.387
1738231431.747,-22.949,-16.113,-39.551,-40.527,-164.062
1738231431.751,-33.691,-19.043,-36.621,-39.062,-253.418
1738231431.755,-47.852,-25.879,-50.781,-16.602,307.617
1738231431.759,-69.336,-23.926,-46.387,-31.250,575.195
1738231431.762,-41.016,-16.113,-28.320,-69.336,-129.883
1738231431.766,-17.578,-18.066,-31.738,-64.453,-317.871
1738231431.770,-14.160,-17.578,-32.715,-39.551,-117.676
1738231431.774,-19.531,-15.137,-40.527,-30.762,-158.203
1738231431.778,-32.715,-23.926,-52.246,-21.484,-197.754
1738231431.780,-39.062,-33.203,-47.852,-24.414,-66.895
1738231431.784,-25.879,-30.762,-39.551,-25.879,179.199
1738231431.788,-35.156,-27.832,-30.273,-35.156,-112.305
1738231431.792,-53.711,-20.996,-31.250,-45.410,-300.781
1738231431.796,-55.664,-20.996,-38.086,-39.062,-122.559
1738231431.800,-39.062,-25.391,-32.715,-44.922,21.973
1738231431.804,-24.414,-23.926,-30.273,-63.965,16.113
1738231431.807,-16.602,-24.902,-31.250,-66.406,-232.910
1738231431.811,-20.020,-23.926,-40.527,-46.387,-24.414
1738231431.815,-26.367,-20.020,-44.434,-34.180,368.652
1738231431.819,-13.184,-19.531,-33.691,-56.641,-57.617
1738231431.823,-0.977,-18.555,-35.156,-65.918,-262.695
1738231431.841,-3.906,-14.648,-40.527,-45.898,-144.043
1738231431.845,-34.180,-17.090,-36.133,-23.926,-103.516
1738231431.849,-56.641,-22.461,-35.645,-22.949,-6.348
1738231431.853,-25.391,-23.438,-35.156,-33.691,-31.738
1738231431.857,-5.371,-22.461,-33.691,-36.133,219.727
1738231431.861,-24.902,-22.949,-27.832,-47.852,248.047
1738231431.865,-44.922,-26.855,-28.809,-34.180,-135.742
1738231431.868,-2.930,-34.180,-33.691,24.414,-78.613
1738231431.872,20.508,-25.391,-33.691,29.297,291.016
1738231431.876,-39.551,-10.742,-23.438,-30.762,43.945
1738231431.880,-43.457,-11.230,-21.973,-40.527,-351.074
1738231431.884,-40.527,-20.020,-32.227,-29.297,-222.656
1738231431.872,-47.852,-23.926,-35.645,-22.461,-93.262
1738231431.876,-11.719,-21.484,-30.762,-36.133,-123.047
1738231431.880,5.371,-15.625,-25.879,-52.246,-236.816
1738231431.884,-12.695,-13.672,-29.785,-32.227,-250.977
1738231431.888,-25.391,-24.902,-30.273,-2.441,-60.547
1738231431.892,-29.785,-23.438,-28.809,1.953,96.680
1738231431.896,-10.254,-22.949,-31.250,-20.508,98.145
1738231431.899,-0.977,-36.621,-32.715,-43.945,105.957
1738231431.903,-23.926,-34.180,-31.738,-52.734,34.668
1738231431.907,-26.367,-29.785,-31.250,-36.621,-133.301
1738231431.911,-24.902,-34.668,-37.109,-41.016,-127.441
1738231431.915,-22.949,-38.574,-43.945,-47.852,219.727
1738231431.930,-13.672,-37.109,-35.156,-34.180,435.547
1738231431.934,-3.418,-26.367,-26.367,-32.715,-127.930
1738231431.938,1.465,-28.809,-31.738,-14.648,-241.211
1738231431.942,-12.695,-33.691,-33.691,1.953,317.871
1738231431.946,-17.090,-27.344,-22.461,-17.090,182.129
1738231431.950,-17.578,-22.949,-22.461,-31.738,-119.141
1738231431.954,-22.461,-23.926,-27.832,-38.574,14.648
1738231431.957,-29.785,-27.344,-33.203,-42.969,431.641
1738231431.961,-41.504,-28.809,-33.203,-26.367,393.066
1738231431.965,-8.789,-27.832,-23.438,-21.484,-132.324
1738231431.969,6.836,-20.996,-25.879,-38.086,-191.406
1738231431.973,2.441,-15.137,-29.297,-27.832,191.895
1738231431.978,-6.348,-15.137,-21.484,-24.414,-22.461
1738231431.982,-45.898,-16.602,-26.855,-32.227,-267.090
1738231431.986,-47.363,-25.879,-32.227,-15.625,-98.633
1738231431.990,-29.297,-30.762,-22.461,-8.301,-137.207
1738231431.994,-38.574,-34.668,-23.438,-17.090,-262.207
1738231431.998,-35.645,-44.922,-26.855,-36.621,-129.883
1738231432.002,-36.621,-41.504,-33.691,-39.551,219.727
1738231432.005,-31.738,-32.227,-34.668,-24.902,163.574
1738231432.009,-4.883,-23.926,-30.762,-42.480,-189.941
1738231432.013,3.418,-16.113,-35.645,-61.523,-284.180
1738231432.017,-22.461,-20.996,-42.480,-46.387,-8.789
1738231432.021,-49.805,-25.391,-42.969,-26.367,227.051
1738231432.005,-46.387,-27.832,-31.738,-17.578,-33.203
1738231432.009,-18.555,-31.250,-29.297,-21.484,-246.094
1738231432.013,-10.742,-32.227,-30.762,-19.531,50.293
1738231432.017,-15.137,-28.320,-32.715,-34.180,127.441
1738231432.021,-35.156,-28.809,-32.227,-41.504,-178.711
1738231432.025,-25.879,-32.715,-31.738,-26.855,-4.883
1738231432.029,-4.883,-27.832,-27.832,-32.715,182.129
1738231432.032,-19.043,-23.438,-18.555,-45.898,-122.559
1738231432.036,-26.367,-23.926,-19.531,-42.969,-339.355
1738231432.040,-34.180,-27.344,-22.461,-35.645,-221.680
1738231432.044,-49.805,-29.785,-29.297,-32.227,404.297
1738231432.048,-26.367,-26.367,-27.344,-33.691,693.359
1738231432.070,-20.508,-28.320,-14.160,-39.062,11.719
1738231432.074,-31.738,-22.949,-13.672,-30.762,-219.727
1738231432.078,-21.973,-20.996,-20.020,-20.020,218.750
1738231432.082,-28.809,-24.414,-12.695,-25.879,18.066
1738231432.086,-24.902,-18.066,-14.648,-37.598,-254.883
1738231432.090,-21.973,-23.438,-21.973,-36.133,-35.645
1738231432.094,-25.391,-31.738,-23.926,-36.621,144.043
1738231432.097,-36.133,-21.973,-22.949,-40.527,-13.184
1738231432.101,-45.898,-16.602,-23.926,-33.203,-144.043
1738231432.105,-34.180,-19.531,-26.855,-31.250,-53.711
1738231432.109,-35.645,-18.555,-22.949,-43.945,-122.070
1738231432.113,-24.414,-19.531,-19.043,-34.180,-342.773
1738231432.112,-23.438,-20.020,-24.902,-14.648,-247.070
1738231432.116,-36.621,-22.949,-33.691,-15.625,46.387
1738231432.120,-19.531,-21.484,-29.297,-34.668,10.742
1738231432.124,-19.531,-25.879,-27.344,-48.828,-140.137
1738231432.128,-23.438,-21.973,-31.250,-57.129,-52.246
1738231432.132,-32.227,-15.625,-33.691,-46.875,242.188
1738231432.136,-42.480,-21.973,-31.738,-23.926,160.645
1738231432.139,-31.738,-28.320,-29.297,-27.344,-144.531
1738231432.143,-20.020,-23.438,-28.809,-36.621,-194.824
1738231432.147,-14.160,-26.855,-41.504,-31.250,234.375
1738231432.151,-31.250,-27.344,-40.527,-28.320,145.020
1738231432.155,-46.387,-24.414,-26.855,-11.230,-135.742
1738231432.200,-41.504,-25.879,-24.414,-13.184,-10.254
1738231432.204,-9.277,-26.367,-24.902,-39.062,-23.926
1738231432.208,-4.395,-21.973,-25.391,-49.805,-152.344
1738231432.212,-38.574,-17.578,-17.578,-49.805,-263.184
1738231432.206,-22.949,-14.648,1.953,-36.133,-35.156
1738231432.210,-29.297,-17.090,1.465,-35.645,-102.539
1738231432.214,-28.809,-20.996,-2.930,-26.855,-189.453
1738231432.218,-26.367,-21.973,-13.672,-36.133,-41.992
1738231432.222,-30.762,-23.926,-10.254,-44.434,63.965
1738231432.226,-30.762,-25.879,-6.348,-46.875,-6.348
1738231432.230,-54.688,-37.598,-9.277,-44.434,-145.508
1738231432.233,-51.270,-49.316,-11.230,-14.160,59.570
1738231432.237,15.625,-46.387,-6.348,31.250,459.961
1738231432.241,17.090,-18.555,-6.348,1.465,95.215
1738231432.245,-27.832,-6.348,-15.137,-64.453,-313.477
1738231432.249,-21.973,-11.230,-19.531,-56.152,-218.750
1738231432.260,-22.949,-10.742,-23.926,-31.738,-53.223
1738231432.264,-31.250,-18.555,-27.832,-20.020,-25.879
1738231432.268,2.441,-21.973,-34.180,-23.438,-115.234
1738231432.272,25.391,-16.602,-40.039,-28.809,-130.371
1738231432.276,13.672,-15.137,-40.039,-23.438,-73.730
1738231432.280,1.465,-24.902,-50.293,-13.184,47.852
1738231432.284,18.066,-20.020,-52.734,-5.371,144.043
1738231432.287,31.250,-18.555,-51.270,-7.324,70.312
1738231432.291,31.250,-25.879,-66.406,-5.371,439.453
1738231432.295,29.297,-20.508,-61.523,-3.906,664.062
1738231432.299,21.973,-7.324,-53.223,-1.953,139.648
1738231432.303,35.645,-3.906,-60.547,3.906,-20.508
1738231432.295,46.875,-8.301,-61.035,-5.371,-52.734
1738231432.299,28.320,-4.395,-56.641,-19.043,-305.664
1738231432.303,45.898,-1.953,-60.547,-8.789,-282.227
1738231432.307,42.480,-4.883,-68.359,1.465,196.289
1738231432.311,17.090,-7.812,-57.617,6.836,254.395
1738231432.315,36.621,-6.348,-55.664,-6.836,-135.742
1738231432.319,28.320,-9.766,-65.430,-10.742,-95.703
1738231432.322,28.809,-6.348,-62.012,6.348,-51.270
1738231432.326,38.574,-0.977,-53.711,9.277,-186.523
1738231432.330,23.438,-3.418,-50.781,5.371,-182.129
1738231432.334,19.531,-3.906,-53.711,-5.371,-118.164
1738231432.338,21.484,0.000,-60.059,-11.719,222.656
1738231432.338,21.973,-2.930,-49.316,-9.766,94.238
1738231432.342,13.184,-2.441,-44.922,-7.324,-209.473
1738231432.346,22.949,1.465,-48.828,-6.348,-61.035
1738231432.350,24.414,-3.906,-45.410,-21.484,0.488
1738231432.354,12.695,-3.418,-42.480,-18.066,-210.938
1738231432.358,18.066,-3.418,-39.062,-16.113,-246.582
1738231432.362,15.625,-6.348,-46.387,-12.207,78.125
1738231432.365,19.531,-2.930,-45.410,7.324,439.941
1738231432.369,13.672,-2.441,-29.297,-13.672,13.672
1738231432.373,3.906,-4.883,-30.273,-32.715,-273.438
1738231432.377,12.207,-1.465,-33.691,-18.555,-95.703
1738231432.381,-6.348,0.977,-27.832,-6.348,-136.719
1738231432.440,-16.113,-7.324,-31.250,-9.766,-174.316
1738231432.444,0.000,-10.742,-35.645,-14.648,-149.414
1738231432.448,1.953,-7.324,-37.598,-12.207,-42.969
1738231432.452,-16.113,-14.160,-39.551,-21.484,-59.082
1738231432.456,-24.414,-17.578,-41.504,-28.809,-179.199
1738231432.460,-28.809,-17.090,-43.945,-17.090,41.504
1738231432.464,-22.949,-20.996,-45.410,-16.602,502.930
1738231432.467,-2.441,-17.090,-42.480,-25.391,625.000
1738231432.471,-4.883,-14.160,-38.086,-37.598,10.254
1738231432.475,-18.066,-21.484,-42.480,-42.480,-322.754
1738231432.479,-39.551,-33.203,-49.316,-36.621,-130.371
1738231432.483,-32.227,-31.738,-42.480,-36.621,-151.367
1738231432.491,-15.137,-27.344,-34.180,-44.434,-248.047
1738231432.495,-13.184,-32.227,-37.109,-41.992,-268.555
1738231432.499,-17.090,-32.227,-36.621,-30.762,-212.891
1738231432.503,-33.691,-31.250,-39.551,-26.367,-156.738
1738231432.507,-45.410,-35.645,-44.434,-24.902,-141.602
1738231432.511,-25.879,-33.203,-35.645,-10.254,59.082
1738231432.515,-1.953,-22.949,-31.738,-22.949,131.348
1738231432.518,-4.395,-20.508,-36.133,-47.363,-79.590
1738231432.522,-28.809,-21.973,-37.598,-44.922,-130.859
1738231432.526,-28.320,-26.367,-33.203,-31.250,12.207
1738231432.530,-17.090,-25.391,-25.391,-24.414,-39.062
1738231432.534,-30.273,-22.461,-26.855,-26.855,-222.656
1738231432.519,-33.203,-22.949,-28.809,-39.551,-197.266
1738231432.523,-27.344,-21.973,-32.227,-28.809,8.301
1738231432.527,-29.297,-22.949,-27.344,-25.391,57.129
1738231432.531,-29.785,-23.926,-18.555,-42.969,-81.543
1738231432.535,-22.461,-24.902,-18.555,-48.828,-101.562
1738231432.539,-19.531,-25.879,-29.785,-35.645,151.855
1738231432.543,-30.762,-31.738,-29.297,-12.695,53.711
1738231432.546,-11.230,-36.621,-24.414,-2.930,-104.004
1738231432.550,11.230,-21.484,-28.809,-24.902,6.836
1738231432.554,-17.578,-8.301,-28.320,-55.664,27.832
1738231432.558,-38.086,-18.555,-22.949,-56.152,-167.969
1738231432.562,-25.391,-23.438,-31.250,-30.273,-228.027
1738231432.525,-35.156,-21.973,-41.992,-39.062,-103.027
1738231432.529,-25.391,-28.320,-35.156,-36.621,10.254
1738231432.533,-28.809,-17.090,-31.250,-54.199,-122.559
1738231432.537,-33.203,-16.113,-33.691,-46.875,-246.582
1738231432.541,-21.973,-18.555,-41.504,-12.207,-50.781
1738231432.545,-32.715,-20.020,-47.852,-27.832,131.348
1738231432.549,-5.859,-15.625,-44.922,-37.109,43.945
1738231432.552,2.930,-12.695,-41.992,-43.945,-141.113
1738231432.556,-18.555,-19.043,-44.922,-48.828,-89.844
1738231432.560,-14.648,-17.090,-53.711,-19.531,581.543
1738231432.564,-31.250,-19.531,-48.340,-17.090,824.219
1738231432.568,-31.250,-17.090,-35.645,-38.086,103.516
1738231432.590,-15.625,-15.625,-41.016,-31.738,-50.781
1738231432.594,-32.227,-28.320,-30.762,-29.297,-63.477
1738231432.598,-51.758,-30.762,-32.715,-35.156,-250.000
1738231432.602,-50.293,-27.344,-40.039,-26.855,-36.133
1738231432.606,-33.691,-20.508,-35.156,-24.414,279.785
1738231432.610,-25.879,-16.113,-35.156,-28.809,618.652
1738231432.614,-33.691,-22.461,-36.621,-32.227,719.727
1738231432.617,-46.387,-24.414,-39.551,-36.621,498.535
1738231432.621,-48.828,-20.996,-31.250,-34.180,-84.961
1738231432.625,-44.922,-21.484,-24.902,-48.340,-345.703
1738231432.629,-41.016,-24.414,-30.762,-59.082,-379.395
1738231432.633,-21.484,-33.691,-31.738,-38.086,-388.184
1738231432.622,-23.438,-27.344,-27.344,-25.391,-168.457
1738231432.626,-43.945,-21.973,-28.320,-7.812,-97.168
1738231432.630,-19.531,-21.484,-26.855,-2.441,-247.070
1738231432.634,-18.066,-12.695,-31.250,-32.227,-227.539
1738231432.638,-33.203,-15.137,-36.133,-49.805,-148.926
1738231432.642,-43.457,-19.043,-41.016,-49.316,-207.520
1738231432.646,-54.688,-20.020,-44.434,-45.410,-68.359
1738231432.649,-41.016,-22.461,-41.504,-42.480,65.918
1738231432.653,-31.738,-23.438,-39.062,-37.598,-36.133
1738231432.657,-46.875,-19.531,-40.039,-40.527,-277.344
1738231432.661,-44.434,-16.602,-42.969,-34.668,-359.375
1738231432.665,-22.949,-13.184,-55.176,-13.672,40.527
1738231432.680,-19.043,-16.602,-45.410,-24.902,302.734
1738231432.684,-25.879,-22.461,-25.879,-33.203,-222.656
1738231432.688,-17.090,-21.484,-37.598,-32.715,-326.660
1738231432.692,-0.977,-25.391,-43.945,-27.832,157.715
1738231432.696,-9.277,-18.555,-39.062,-16.602,151.367
1738231432.700,-9.766,-11.719,-34.180,-23.926,1.953
1738231432.704,-13.672,-19.043,-37.598,-42.969,71.289
1738231432.707,-26.855,-23.438,-41.016,-41.504,298.828
1738231432.711,-20.508,-17.578,-29.785,-35.645,187.988
1738231432.715,-21.973,-13.672,-31.250,-28.320,-248.047
1738231432.719,-14.648,-19.531,-30.273,-20.996,-168.457
1738231432.723,0.000,-22.461,-25.391,-26.367,6.836
1738231432.716,-4.395,-25.391,-29.297,-27.832,-238.770
1738231432.720,-20.508,-34.668,-36.621,-26.855,-307.617
1738231432.724,-31.738,-32.715,-41.016,-28.809,-184.570
1738231432.728,-34.180,-27.832,-35.156,-25.391,-111.816
1738231432.732,-24.902,-35.645,-29.785,-32.227,-214.355
1738231432.736,-23.926,-37.109,-31.250,-48.828,-248.047
1738231432.740,-26.855,-29.297,-29.297,-37.109,-106.445
1738231432.743,-31.250,-29.785,-32.227,-17.578,67.871
1738231432.747,-37.109,-32.227,-31.738,-25.879,-8.789
1738231432.751,-30.762,-36.133,-26.855,-45.410,-210.449
1738231432.755,-20.020,-35.156,-25.879,-41.992,-68.359
1738231432.759,-20.508,-26.367,-24.902,-27.344,-50.781
1738231432.755,-34.668,-23.438,-27.344,-20.508,-210.938
1738231432.759,-33.203,-29.785,-30.273,-24.902,-131.836
1738231432.763,-17.090,-34.668,-30.273,-29.297,148.438
1738231432.767,-20.996,-33.203,-18.555,-27.344,109.863
1738231432.771,-32.715,-30.273,-15.137,-29.297,-229.492
1738231432.775,-35.645,-29.785,-24.902,-19.531,-88.379
1738231432.779,-40.527,-25.879,-32.715,-13.672,403.809
1738231432.782,-36.133,-31.738,-34.180,-41.016,700.684
1738231432.786,-39.551,-33.691,-30.273,-47.363,730.469
1738231432.790,-39.551,-22.461,-19.531,-33.203,150.391
1738231432.794,-39.551,-21.484,-23.926,-21.484,-215.820
1738231432.798,-47.852,-22.949,-30.273,-23.438,-182.617
1738231432.818,-32.715,-21.973,-23.438,-30.273,-240.723
1738231432.822,-29.785,-22.461,-20.508,-31.250,-235.352
1738231432.826,-39.062,-23.926,-21.484,-32.227,-233.887
1738231432.830,-38.574,-21.973,-24.902,-22.949,-245.117
1738231432.834,-42.480,-20.020,-25.391,-24.414,-187.012
1738231432.838,-23.438,-22.461,-29.785,-37.598,-26.367
1738231432.842,-11.719,-26.367,-25.391,-29.297,95.703
1738231432.845,-25.879,-29.785,-20.020,-37.598,-133.301
1738231432.849,-39.062,-28.320,-27.832,-45.898,-247.070
1738231432.853,-31.250,-20.996,-37.109,-31.250,-20.020
1738231432.857,8.789,-20.020,-36.621,-18.066,124.023
1738231432.861,12.207,-35.645,-22.949,-16.113,-111.328
1738231432.860,-34.668,-40.527,-7.324,-40.039,-290.039
1738231432.864,-60.547,-36.133,-16.113,-46.875,49.805
1738231432.868,-63.965,-41.992,-17.090,-26.855,274.902
1738231432.872,-60.547,-41.016,-6.836,-29.785,6.836
1738231432.876,-49.316,-39.062,-11.719,-47.852,-131.348
1738231432.880,-38.086,-41.992,-20.020,-48.340,169.922
1738231432.884,-39.551,-36.621,-27.344,-40.527,130.371
1738231432.887,-55.664,-36.133,-29.785,-43.945,-129.883
1738231432.891,-40.527,-42.969,-28.809,-46.875,-162.598
1738231432.895,-25.391,-42.480,-36.133,-50.781,235.840
1738231432.899,-13.672,-39.551,-32.715,-42.969,513.672
1738231432.903,-20.996,-31.738,-17.090,-39.062,-11.230
1738231432.905,-42.969,-25.879,-21.973,-35.645,-156.738
1738231432.909,-39.551,-25.879,-25.391,-31.250,-3.906
1738231432.913,-39.551,-28.320,-17.090,-38.574,-242.188
1738231432.917,-41.016,-28.320,-17.090,-39.062,-369.629
1738231432.921,-35.645,-28.809,-21.484,-28.320,-228.516
1738231432.925,-47.363,-27.344,-22.949,-18.066,62.988
1738231432.929,-47.852,-29.297,-24.414,-22.949,128.906
1738231432.932,-43.457,-31.738,-18.555,-39.551,-92.773
1738231432.936,-40.527,-23.926,-18.066,-33.203,-87.891
1738231432.940,-35.156,-24.902,-23.926,-20.020,214.844
1738231432.944,-47.852,-29.297,-20.996,-27.832,-59.082
1738231432.948,-45.410,-28.320,-20.020,-28.809,-217.285
1738231432.965,-38.086,-29.785,-17.578,-37.598,-125.488
1738231432.969,-37.109,-27.832,-14.648,-39.551,-207.520
1738231432.973,-35.645,-24.902,-16.113,-27.832,-272.461
1738231432.977,-41.992,-24.414,-22.949,-24.902,-104.492
1738231432.981,-31.250,-32.227,-30.762,-14.160,417.969
1738231432.985,-27.832,-36.621,-24.902,-21.973,477.539
1738231432.989,-32.715,-36.133,-19.043,-21.973,-13.184
1738231432.992,-32.715,-41.504,-25.879,-22.949,-160.156
1738231432.996,-38.574,-39.551,-36.133,-10.254,276.855
1738231433.000,-49.316,-33.691,-27.344,-5.859,216.309
1738231433.004,-36.621,-32.715,-24.902,-22.949,-232.422
1738231433.008,-21.973,-26.367,-24.902,-24.414,-262.207
1738231432.996,-34.668,-21.484,-16.602,-33.691,-207.520
1738231433.000,-49.805,-25.879,-21.484,-30.273,-178.223
1738231433.004,-43.457,-29.785,-30.762,-13.672,-131.348
1738231433.008,-21.484,-27.344,-29.297,-33.691,-136.230
1738231433.012,-20.020,-25.879,-26.855,-63.965,-185.059
1738231433.016,-27.832,-32.715,-33.691,-53.711,-114.746
1738231433.020,-31.738,-36.621,-40.039,-35.156,-19.043
1738231433.023,-23.438,-41.504,-39.551,-32.715,131.348
1738231433.027,-15.137,-39.551,-31.738,-47.852,42.969
1738231433.031,-20.508,-31.738,-24.902,-42.480,-199.707
1738231433.035,-32.715,-32.715,-29.297,-35.156,-293.457
1738231433.039,-37.109,-34.668,-38.574,-32.227,77.637
1738231433.040,-34.180,-28.809,-35.156,-22.461,611.328
1738231433.044,-37.598,-25.391,-23.926,-33.691,60.059
1738231433.048,-26.855,-22.949,-23.438,-32.715,-217.773
1738231433.052,-20.020,-28.320,-30.273,-30.273,242.188
1738231433.056,-36.621,-33.691,-33.691,-32.227,65.430
1738231433.060,-50.293,-38.086,-37.109,-20.508,-45.898
1738231433.064,-41.016,-38.086,-36.133,-39.551,128.418
1738231433.067,-24.902,-28.320,-40.527,-51.758,396.973
1738231433.071,-18.066,-25.879,-28.809,-35.645,458.984
1738231433.075,-26.855,-28.809,-18.555,-29.785,-62.988
1738231433.079,-42.480,-30.762,-26.367,-30.762,-150.879
1738231433.083,-32.715,-31.250,-22.461,-30.273,88.379
1738231433.086,-31.738,-28.809,-18.066,-26.855,-119.629
1738231433.090,-43.945,-31.250,-23.926,-34.668,-280.762
1738231433.094,-35.645,-28.320,-27.832,-32.715,-145.996
1738231433.098,-30.273,-27.344,-27.344,-20.020,0.977
1738231433.102,-28.320,-27.832,-19.531,-25.879,-41.016
1738231433.106,-26.855,-20.508,-20.020,-38.574,-135.742
1738231433.110,-26.855,-18.555,-27.344,-37.109,81.543
1738231433.113,-34.668,-24.902,-31.250,-25.391,549.805
1738231433.117,-42.969,-19.043,-23.438,-27.344,187.012
1738231433.121,-25.391,-12.207,-16.113,-31.250,-189.941
1738231433.125,-20.020,-8.301,-2.441,-32.715,-9.277
1738231433.129,-42.480,-15.137,-4.883,-45.410,-68.848
1738231433.130,-56.152,-13.184,-27.344,-51.758,-240.234
1738231433.134,-51.758,0.488,-28.809,-36.621,-107.910
1738231433.138,-43.457,-2.441,-24.902,-49.316,231.445
1738231433.142,-65.430,1.465,-17.578,-74.219,197.754
1738231433.146,-87.891,15.137,9.766,-68.848,-191.895
1738231433.150,-107.910,20.508,6.348,-91.309,-104.492
1738231433.154,-117.188,34.668,-34.668,-113.770,545.410
1738231433.157,-146.484,45.410,-24.414,-146.973,644.043
1738231433.161,-162.598,48.340,58.594,-183.594,-78.125
1738231433.165,-150.879,70.801,116.211,-171.387,-288.574
1738231433.169,-204.102,83.496,159.180,-207.520,-230.469
1738231433.173,-261.230,101.074,209.961,-237.305,-264.160
1738231433.178,-237.793,139.648,259.766,-221.680,-281.738
1738231433.182,-276.367,148.438,454.102,-285.645,-156.738
1738231433.186,-305.176,132.324,673.340,-322.754,8.789
1738231433.190,-255.371,158.203,771.973,-265.625,-157.715
1738231433.235,-289.551,242.676,972.168,-282.227,-265.625
1738231433.239,-352.051,263.672,969.238,-331.055,-177.246
1738231433.243,-327.637,380.859,969.238,-282.227,-116.211
1738231433.247,-235.352,554.688,969.238,-206.055,-0.977
1738231433.251,-243.652,700.195,969.238,-229.004,-22.461
1738231433.255,-241.699,886.719,969.238,-225.586,350.586
1738231433.259,-223.633,974.609,969.238,-202.148,746.094
1738231433.262,-223.145,963.867,969.238,-188.965,208.984
1738231433.266,-214.355,969.238,968.750,-192.383,-169.434
1738231433.270,-202.637,969.727,968.750,-209.473,-121.582
1738231433.274,-236.328,969.238,969.238,-228.516,-283.691
1738231433.278,-163.086,968.750,969.238,-164.062,-338.379
1738231433.280,-91.309,968.750,969.238,-59.570,-212.891
1738231433.284,-118.652,969.238,969.238,-67.383,-76.660
1738231433.288,-131.836,969.238,969.238,-104.492,-135.742
1738231433.292,-118.652,969.238,969.727,-91.797,-278.320
1738231433.296,-80.078,969.238,973.145,-57.129,-195.801
1738231433.300,-75.195,968.750,929.688,-52.734,11.719
1738231433.304,-70.801,969.238,905.762,-31.250,67.383
1738231433.307,-20.996,969.238,748.535,4.395,-42.969
1738231433.311,4.883,969.238,-109.375,19.043,-14.648
1738231433.315,-4.883,969.238,-852.051,19.043,450.684
1738231433.319,-7.812,969.238,-898.438,24.414,136.230
1738231433.323,12.207,970.215,-938.965,54.688,-201.172
1738231433.325,40.527,964.844,-978.027,67.871,-7.812
1738231433.329,42.969,972.168,-938.477,59.570,-126.465
1738231433.333,57.617,953.125,-959.961,83.984,-200.195
1738231433.337,62.988,820.312,-981.445,106.445,27.832
1738231433.341,49.805,682.617,-979.980,104.980,290.527
1738231433.345,78.125,585.449,-876.953,101.074,278.809
1738231433.349,112.305,495.605,-805.664,112.305,27.344
1738231433.352,111.816,415.039,-812.500,119.629,-143.555
1738231433.356,113.770,328.125,-776.367,119.629,156.738
1738231433.360,138.184,217.773,-478.516,95.215,105.957
1738231433.364,176.758,71.777,-257.324,48.828,-169.434
1738231433.368,204.102,-83.496,-333.008,24.902,-126.465
1738231433.369,216.309,-205.566,14.160,44.434,289.551
1738231433.373,218.750,-294.434,653.320,76.660,156.250
1738231433.377,229.980,-349.121,800.293,104.004,-136.719
1738231433.381,260.742,-396.484,876.465,129.395,-62.500
1738231433.385,273.438,-476.074,931.641,145.508,-107.910
1738231433.389,257.324,-489.258,953.613,158.203,-60.547
1738231433.393,252.930,-448.242,955.078,168.945,-71.777
1738231433.396,229.492,-423.828,948.242,163.086,135.742
1738231433.400,216.797,-407.715,944.824,168.457,457.031
1738231433.404,214.844,-369.141,947.754,160.645,-48.828
1738231433.408,204.590,-331.543,917.969,153.809,-313.965
1738231433.412,192.871,-305.664,873.535,159.180,93.750
1738231433.415,176.758,-280.273,839.844,161.133,96.680
1738231433.419,187.012,-255.859,676.758,168.457,-119.141
1738231433.423,180.176,-237.305,405.273,156.250,-82.031
1738231433.427,170.898,-228.516,176.270,147.949,282.227
1738231433.431,175.293,-218.750,62.988,155.762,155.273
1738231433.435,149.414,-208.496,44.434,166.016,-54.199
1738231433.439,134.766,-194.336,-57.129,161.621,109.863
1738231433.442,141.602,-178.223,-378.418,153.320,305.176
1738231433.446,137.695,-167.969,-509.766,154.785,87.891
1738231433.450,143.066,-156.250,-471.680,163.086,-279.297
1738231433.454,129.883,-153.320,-494.629,171.875,-183.594
1738231433.458,104.980,-164.062,-489.746,162.598,-61.523
1738231433.463,113.281,-170.898,-537.109,135.254,-151.367
1738231433.467,124.023,-175.293,-559.082,125.977,-238.770
1738231433.471,116.211,-170.410,-547.363,127.441,-85.449
1738231433.475,99.121,-150.879,-601.562,118.164,33.203
1738231433.479,79.102,-143.555,-572.754,108.398,-43.945
1738231433.483,77.148,-141.113,-586.426,89.355,-31.738
1738231433.487,77.637,-124.512,-655.762,93.262,94.238
1738231433.490,64.941,-107.422,-633.301,99.121,306.152
1738231433.494,55.176,-95.703,-678.711,90.332,-14.648
1738231433.498,62.012,-95.703,-729.004,96.680,-146.484
1738231433.502,63.477,-91.797,-827.637,80.078,-26.855
1738231433.506,61.523,-80.566,-884.277,65.430,-163.574
1738231433.505,51.758,-74.219,-864.258,66.406,-328.125
1738231433.509,55.664,-63.477,-843.262,81.543,-273.438
1738231433.513,59.082,-61.523,-808.594,89.844,46.875
1738231433.517,53.711,-61.523,-780.762,66.406,90.332
1738231433.521,43.457,-59.082,-765.625,41.992,-84.473
1738231433.525,32.715,-57.617,-796.387,37.109,-78.613
1738231433.529,30.762,-49.805,-828.613,47.363,466.309
1738231433.532,29.297,-48.828,-819.336,48.340,817.871
1738231433.536,31.738,-46.387,-784.180,26.855,100.586
1738231433.540,18.555,-41.504,-799.316,12.207,-241.699
1738231433.544,7.324,-42.969,-793.457,18.555,20.020
1738231433.548,-6.348,-53.711,-791.016,18.555,-130.859
1738231433.551,-16.602,-53.223,-851.074,10.254,-179.199
1738231433.555,-11.230,-40.039,-872.070,-10.254,-75.684
1738231433.559,-15.625,-35.156,-868.652,-24.902,-167.969
1738231433.563,-23.926,-31.250,-859.375,-21.973,-224.609
1738231433.567,-31.738,-21.484,-879.883,-26.855,-222.656
1738231433.571,-40.527,-14.160,-908.203,-18.066,31.250
1738231433.575,-37.598,-5.371,-865.723,-17.090,296.387
1738231433.578,-18.555,1.465,-815.918,-22.949,52.246
1738231433.582,-19.043,-0.488,-803.711,-21.484,-256.348
1738231433.586,-32.227,-4.883,-842.773,-20.508,-108.887
1738231433.590,-40.527,-5.371,-859.375,-14.648,174.316
1738231433.594,-37.109,-2.441,-882.812,-19.043,-146.484
1738231433.610,-34.668,-1.465,-925.781,-33.203,-270.996
1738231433.614,-31.250,-3.906,-921.387,-38.574,-124.023
1738231433.618,-35.156,-7.324,-920.898,-41.992,-125.977
1738231433.622,-52.246,-12.207,-921.875,-36.133,-78.613
1738231433.626,-36.621,-13.672,-925.781,-34.668,-93.262
1738231433.630,-21.484,-22.461,-947.266,-39.551,310.547
1738231433.634,-41.016,-28.320,-943.848,-42.480,443.848
1738231433.637,-57.617,-23.438,-955.566,-40.039,-208.008
1738231433.641,-55.664,-26.855,-967.285,-41.504,-196.777
1738231433.645,-49.316,-30.762,-955.566,-45.898,398.926
1738231433.649,-46.875,-30.273,-949.707,-50.293,52.734
1738231433.653,-41.016,-32.227,-951.172,-46.387,-347.656
1738231433.655,-44.434,-29.297,-948.242,-35.645,-215.820
1738231433.659,-55.664,-27.344,-945.801,-22.461,-138.184
1738231433.663,-54.199,-30.762,-936.035,-28.809,-176.758
1738231433.667,-51.758,-32.227,-923.828,-45.898,-258.789
1738231433.671,-50.781,-26.367,-932.129,-44.434,-176.758
1738231433.675,-41.016,-15.625,-938.477,-39.551,-33.203
1738231433.679,-54.688,-18.066,-943.359,-39.551,-0.488
1738231433.682,-44.922,-20.508,-945.801,-39.062,-151.367
1738231433.686,-27.344,-18.555,-949.707,-46.387,-40.039
1738231433.690,-35.645,-17.578,-941.895,-47.852,262.207
1738231433.694,-39.551,-16.602,-944.824,-42.480,-99.121
1738231433.698,-52.246,-19.043,-960.938,-32.715,-177.734
1738231433.701,-56.641,-23.438,-956.055,-31.250,156.250
1738231433.705,-50.293,-12.207,-936.523,-44.434,-1.465
1738231433.709,-50.293,-2.930,-931.641,-44.434,-218.262
1738231433.713,-54.688,-3.906,-927.246,-34.668,-58.594
1738231433.717,-70.312,-2.441,-931.152,-32.227,190.918
1738231433.721,-66.406,-6.836,-921.875,-37.109,242.188
1738231433.725,-35.645,-3.418,-919.922,-45.410,-23.438
1738231433.728,-37.598,1.465,-937.988,-58.105,-257.324
1738231433.732,-59.570,-4.883,-931.641,-62.988,98.145
1738231433.736,-70.312,-3.418,-904.785,-57.129,81.543
1738231433.740,-54.688,2.930,-890.625,-45.410,-237.305
1738231433.744,-30.273,-0.488,-871.582,-35.156,-195.312
1738231433.747,-41.016,-1.953,-827.637,-50.781,-215.332
1738231433.751,-59.570,3.418,-803.711,-64.453,-226.562
1738231433.755,-74.707,4.883,-792.480,-62.012,-131.836
1738231433.759,-79.590,-4.883,-765.137,-58.594,-53.223
1738231433.763,-60.059,-8.789,-714.355,-58.594,-93.262
1738231433.767,-65.430,-1.953,-659.668,-71.777,-105.957
1738231433.771,-87.402,-4.883,-641.602,-72.754,-89.844
1738231433.774,-81.055,-8.301,-662.598,-53.711,12.207
1738231433.778,-74.219,-3.906,-675.293,-43.457,492.188
1738231433.782,-78.125,-3.418,-629.883,-58.594,153.809
1738231433.786,-71.777,-6.348,-622.559,-70.312,-300.293
1738231433.790,-65.918,-5.371,-648.926,-68.359,-180.176
1738231433.790,-71.289,-3.418,-652.832,-68.359,-175.781
1738231433.794,-74.707,-1.953,-658.691,-48.340,-196.777
1738231433.798,-57.129,-1.953,-664.551,-47.363,-114.258
1738231433.802,-49.805,-5.859,-652.344,-69.336,117.676
1738231433.806,-53.223,-9.766,-625.488,-74.707,-26.367
1738231433.810,-57.129,-4.883,-618.164,-73.242,-112.305
1738231433.814,-58.105,-1.953,-642.578,-62.988,121.582
1738231433.817,-41.992,-2.441,-657.715,-66.895,400.391
1738231433.821,-41.504,-0.488,-584.473,-77.148,239.258
1738231433.825,-58.105,-0.977,-545.410,-79.590,-304.199
1738231433.829,-74.707,-2.441,-556.641,-67.383,-279.785
1738231433.833,-74.219,1.465,-513.184,-60.547,32.715
1738231433.837,-61.035,2.441,-446.289,-78.613,-43.457
1738231433.841,-59.570,8.301,-411.621,-76.172,-221.191
1738231433.845,-63.477,24.414,-417.480,-59.082,-166.504
1738231433.849,-87.891,20.020,-417.480,-73.730,-30.273
1738231433.853,-103.516,4.395,-384.766,-76.172,-63.965
1738231433.857,-97.656,16.113,-290.039,-94.238,-64.453
1738231433.861,-87.891,39.551,-274.414,-107.910,187.500
1738231433.864,-108.887,41.504,-366.699,-127.930,580.566
1738231433.868,-116.699,85.449,-354.004,-125.977,89.355
1738231433.872,-163.086,110.352,-410.645,-146.484,-225.586
1738231433.876,-223.145,106.934,-490.234,-214.844,55.176
1738231433.880,-198.730,144.043,-472.168,-213.379,5.371
1738231433.880,-194.824,176.270,-380.859,-201.660,-235.840
1738231433.884,-263.672,169.922,-291.504,-255.859,-229.980
1738231433.888,-285.156,180.664,-256.348,-266.113,153.809
1738231433.892,-275.879,191.406,-203.125,-269.043,188.965
1738231433.896,-286.621,182.617,-145.020,-294.922,-149.902
1738231433.900,-281.738,173.340,-144.531,-297.852,-15.137
1738231433.904,-297.852,173.828,-200.684,-297.363,486.328
1738231433.907,-323.242,175.293,-173.828,-285.156,375.488
1738231433.911,-313.477,155.273,-306.641,-294.434,-114.258
1738231433.915,-281.250,149.902,-461.426,-290.039,-70.801
1738231433.919,-294.922,133.301,-502.441,-300.293,-42.969
1738231433.923,-313.477,113.770,-555.664,-306.152,-213.379
1738231433.927,-293.457,113.770,-589.355,-273.438,-265.137
1738231433.931,-268.555,106.445,-599.121,-261.719,-93.262
1738231433.935,-263.184,88.379,-589.844,-264.648,319.336
1738231433.939,-246.582,78.613,-558.594,-242.188,41.992
1738231433.943,-259.277,69.336,-567.871,-246.582,-312.012
1738231433.947,-272.949,56.152,-588.867,-242.676,13.672
1738231433.951,-254.395,44.922,-534.180,-216.309,351.562
1738231433.954,-236.328,28.320,-462.891,-211.426,-28.809
1738231433.958,-230.469,17.090,-395.996,-211.914,-345.215
1738231433.962,-214.844,17.090,-277.832,-196.777,-166.016
1738231433.966,-178.223,8.789,-141.113,-145.996,-29.785
1738231433.970,-154.785,-8.301,125.000,-108.887,-82.520
1738231433.985,-134.766,-18.555,336.914,-107.422,-13.184
1738231433.989,-122.070,-31.738,394.043,-101.074,116.211
1738231433.993,-122.559,-41.504,444.336,-87.891,-20.508
1738231433.997,-113.281,-45.410,446.777,-58.105,-76.660
1738231434.001,-69.824,-56.641,424.316,-20.996,-43.945
1738231434.005,-28.809,-66.406,408.203,-12.695,391.602
1738231434.009,-28.809,-62.012,408.203,-16.113,598.145
1738231434.012,-21.973,-67.871,395.020,-9.766,-78.125
1738231434.016,11.719,-80.566,287.109,18.066,-172.852
1738231434.020,14.160,-83.008,161.133,41.016,145.508
1738231434.024,24.902,-82.031,145.508,41.992,-64.453
1738231434.028,55.176,-81.543,-3.418,56.641,-253.418
1738231434.030,63.965,-83.496,-346.191,65.430,-263.184
1738231434.034,70.312,-88.379,-521.484,81.055,-185.547
1738231434.038,77.637,-90.820,-459.473,111.816,-53.223
1738231434.042,84.473,-91.797,-338.867,109.863,-143.555
1738231434.046,100.586,-93.262,-251.953,104.004,-160.156
1738231434.050,102.051,-97.168,-226.074,103.027,80.566
1738231434.054,98.633,-95.703,-315.918,104.004,100.586
1738231434.057,92.285,-91.797,-382.324,113.281,-111.328
1738231434.061,106.934,-91.797,-395.996,115.723,2.930
1738231434.065,127.441,-88.379,-442.383,106.934,317.383
1738231434.069,116.211,-84.473,-457.031,101.074,-115.723
1738231434.073,102.051,-85.938,-529.297,106.445,-272.949
1738231434.075,96.191,-85.938,-636.230,112.305,9.766
1738231434.079,102.051,-84.961,-685.547,111.328,-68.848
1738231434.083,108.887,-76.172,-721.680,103.516,-193.848
1738231434.087,112.793,-67.383,-743.652,104.004,-190.430
1738231434.091,104.980,-66.895,-735.840,99.609,212.891
1738231434.095,79.590,-65.430,-698.730,87.891,372.070
1738231434.099,79.590,-61.035,-684.570,77.148,101.562
1738231434.102,85.938,-62.500,-655.273,72.754,9.277
1738231434.106,70.312,-70.801,-666.992,74.707,247.070
1738231434.110,55.176,-70.312,-726.074,66.895,210.938
1738231434.114,54.688,-69.824,-745.117,65.430,-158.691
1738231434.118,57.617,-74.707,-709.473,47.363,-167.480
1738231434.120,46.387,-73.242,-669.922,29.785,-182.129
1738231434.124,35.645,-70.312,-642.578,37.109,-284.668
1738231434.128,38.574,-70.312,-596.680,41.016,-260.742
1738231434.132,35.645,-69.824,-559.082,46.387,-126.953
1738231434.136,34.180,-65.430,-522.949,40.039,-60.547
1738231434.140,37.598,-62.988,-422.363,30.273,28.809
1738231434.144,38.574,-63.477,-340.820,30.273,-57.129
1738231434.147,33.691,-65.430,-344.727,26.855,35.156
1738231434.151,20.508,-64.941,-347.656,27.832,554.688
1738231434.155,5.371,-62.500,-345.215,7.324,186.523
1738231434.159,8.789,-60.547,-351.074,-2.930,-281.738
1738231434.163,17.090,-51.270,-342.285,1.465,-215.332
1738231434.165,1.465,-49.805,-303.711,-5.859,-218.262
1738231434.169,-20.020,-58.594,-319.824,-0.977,-218.750
1738231434.173,-13.184,-55.664,-383.301,3.418,-125.488
1738231434.177,-0.488,-50.293,-397.461,-9.277,89.355
1738231434.181,-5.371,-45.410,-419.922,-17.578,-41.016
1738231434.185,-12.695,-48.340,-468.262,-22.461,-79.102
1738231434.189,-23.438,-49.316,-491.699,-15.625,159.668
1738231434.192,-31.738,-53.711,-493.652,-22.461,553.223
1738231434.196,-27.832,-54.199,-453.125,-37.109,320.801
1738231434.200,-16.113,-39.551,-422.363,-27.344,-220.215
1738231434.204,-10.254,-36.621,-423.828,-12.207,-132.324
1738231434.208,-31.738,-50.781,-423.340,-23.438,-40.527
1738231434.211,-45.410,-56.152,-435.059,-27.344,-138.672
1738231434.215,-27.344,-41.016,-433.594,-17.578,-254.395
1738231434.219,-20.508,-35.156,-434.082,-24.414,-188.965
1738231434.223,-31.250,-43.457,-429.688,-34.668,-46.875
1738231434.256,-12.695,-28.320,-223.633,-36.621,-104.004
1738231434.260,-26.367,-31.250,-260.254,-44.434,-284.180
1738231434.264,-41.016,-31.250,-305.176,-35.645,31.250
1738231434.268,-24.902,-4.395,-270.020,-0.977,166.992
1738231434.272,-7.324,5.371,-222.168,8.301,-94.727
1738231434.276,-27.344,-16.602,-188.477,-23.926,-97.656
1738231434.280,-30.273,-20.996,-151.855,-30.762,320.312
1738231434.283,-38.574,-23.438,-125.000,-27.344,492.676
1738231434.287,-44.434,-22.949,-95.215,-20.508,-83.984
1738231434.291,-46.387,-26.855,-48.828,-42.969,-229.004
1738231434.295,-28.809,-11.719,-6.348,-48.828,-159.180
1738231434.299,-5.859,0.000,4.395,-17.090,-277.344
1738231434.303,-16.113,-10.254,38.574,-6.836,-268.066
1738231434.307,-23.926,-13.184,101.562,-9.766,-145.020
1738231434.311,-5.371,-5.371,108.398,-10.742,-38.574
1738231434.315,-7.812,-7.324,87.402,-30.273,-70.312
1738231434.319,-39.062,-24.414,88.379,-51.270,-263.672
1738231434.323,-23.926,-7.324,59.082,2.441,48.828
1738231434.327,-26.367,-10.254,-12.695,24.414,620.117
1738231434.330,-25.879,-5.859,-5.859,-1.465,159.668
1738231434.334,-21.484,-3.906,1.953,-20.508,-357.910
1738231434.338,-16.113,-18.555,0.488,0.488,-200.684
1738231434.342,-25.391,-18.555,10.742,8.301,-157.715
1738231434.346,-47.363,-25.879,-22.461,-24.414,-217.773
1738231434.360,-37.109,-28.320,-69.336,-18.555,-122.559
1738231434.364,-26.855,-27.832,-65.918,-14.648,-92.773
1738231434.368,-38.086,-25.391,-63.965,-22.461,-87.891
1738231434.372,-41.992,-13.184,-86.426,7.324,-39.062
1738231434.376,-47.363,-17.578,-78.613,-4.883,-78.613
1738231434.380,-45.898,-29.297,-83.008,-57.129,369.629
1738231434.384,-43.457,-23.926,-101.074,-71.777,494.629
1738231434.387,-46.387,-15.625,-112.793,-56.152,-54.688
1738231434.391,-48.340,-13.672,-150.879,-45.898,-202.148
1738231434.395,-53.711,-12.207,-231.445,-25.879,131.348
1738231434.399,-40.527,-6.348,-274.414,-10.742,32.227
1738231434.403,-33.203,-3.906,-283.203,-36.133,-258.789
1738231434.406,-31.250,-13.184,-311.523,-68.848,-165.039
1738231434.410,-20.996,-16.113,-347.168,-32.227,187.988
1738231434.414,-8.789,13.672,-361.816,-14.648,-9.766
1738231434.418,-25.391,30.762,-363.770,-67.383,-190.918
1738231434.422,-45.410,18.555,-377.930,-73.730,-140.625
1738231434.426,-52.246,8.301,-414.062,-80.078,-97.656
1738231434.430,-22.949,9.766,-451.172,-57.617,-142.090
1738231434.433,-19.531,11.719,-479.492,-23.926,-173.340
1738231434.437,-31.738,9.277,-506.348,-94.238,69.336
1738231434.441,-22.461,9.277,-535.156,-147.461,434.082
1738231434.445,-41.016,10.254,-528.809,-145.996,55.176
1738231434.449,-41.992,14.160,-550.293,-140.625,-290.039
1738231434.465,-22.461,20.020,-571.777,-126.465,-83.008
1738231434.469,-25.391,14.160,-551.758,-116.211,-59.570
1738231434.473,-0.488,8.301,-541.992,-90.332,-136.230
1738231434.477,-10.742,15.137,-543.457,-99.609,-89.844
1738231434.481,-27.344,12.207,-542.480,-105.957,-20.020
1738231434.485,-32.227,10.254,-541.504,-88.379,4.883
1738231434.489,-39.551,9.766,-540.527,-87.402,61.523
1738231434.492,-12.207,1.465,-487.305,-59.082,-43.457
1738231434.496,1.953,7.324,-467.773,-51.758,243.164
1738231434.500,-18.066,9.277,-432.129,-84.473,452.148
1738231434.504,-34.180,-5.371,-359.375,-69.824,-21.973
1738231434.508,-23.438,-0.488,-323.730,-40.527,-132.812
1738231434.495,-26.855,-3.906,-249.512,-43.945,36.621
1738231434.499,-24.902,-2.441,-174.805,-46.875,-214.844
1738231434.503,-24.902,-4.883,-146.484,-56.641,-361.816
1738231434.507,-44.434,-10.742,-158.691,-60.059,-209.961
1738231434.511,-43.945,-6.348,-206.055,-46.387,-52.734
1738231434.515,-15.625,-6.348,-218.262,-22.949,57.617
1738231434.519,-9.277,-1.953,-204.102,-25.391,-14.648
1738231434.522,-32.227,-6.836,-188.965,-32.715,-87.891
1738231434.526,-39.551,-12.695,-185.547,-16.602,-29.297
1738231434.530,-31.250,-14.160,-174.805,-12.207,-80.566
1738231434.534,-31.738,-17.578,-123.047,-30.762,-178.711
1738231434.538,-38.574,-9.766,-123.047,-26.367,18.555
1738231434.540,-35.645,-11.719,-82.031,-18.066,331.055
1738231434.544,-35.156,-12.695,-51.270,-6.836,-39.062
1738231434.548,-29.785,-12.207,-121.582,7.324,-152.344
1738231434.552,-10.742,-17.090,-158.691,-13.184,358.887
1738231434.556,-6.348,-18.555,-116.211,-24.902,310.547
1738231434.560,-5.859,-21.484,-106.445,-23.438,-179.688
1738231434.564,-24.414,-24.414,-127.441,-26.367,-91.797
1738231434.567,-28.809,-17.090,-66.406,-9.766,340.332
1738231434.571,-2.441,-10.742,-0.488,-2.930,167.969
1738231434.575,-7.324,-18.555,-2.441,-22.949,-304.688
1738231434.579,-17.090,-32.715,-35.156,-40.039,-318.359
1738231434.583,-22.949,-37.109,-49.805,-31.250,-225.586
1738231434.586,-32.715,-34.668,-8.301,-7.324,-132.812
1738231434.590,-37.598,-28.809,25.391,-8.301,-173.340
1738231434.594,-36.621,-26.855,22.949,-22.461,-161.621
1738231434.598,-29.785,-33.203,57.129,-30.762,-53.223
1738231434.602,-32.227,-35.645,102.539,-35.156,-173.340
1738231434.606,-46.387,-37.598,100.586,-33.691,-141.602
1738231434.610,-23.438,-34.180,79.102,-17.090,161.621
1738231434.613,-35.156,-27.344,62.988,-34.180,525.879
1738231434.617,-65.430,-23.926,36.621,-53.223,39.551
1738231434.621,-57.617,-21.484,27.344,-37.109,-335.938
1738231434.625,-48.340,-20.020,30.273,-12.695,-114.746
1738231434.629,-42.480,-19.531,9.277,-20.996,-119.629
1738231434.630,-38.086,-24.414,42.969,-40.039,-232.910
1738231434.634,-43.945,-30.762,63.477,-49.316,-242.676
1738231434.638,-50.781,-30.273,22.461,-48.340,-116.211
1738231434.642,-64.453,-26.367,22.949,-28.320,-43.945
1738231434.646,-74.707,-25.879,0.000,-27.344,-58.594
1738231434.650,-55.664,-28.320,-80.566,-40.527,14.160
1738231434.654,-34.668,-26.367,-144.531,-39.551,420.410
1738231434.657,-28.320,-18.066,-147.949,-41.016,705.566
1738231434.661,-40.527,-21.484,-102.051,-48.828,70.801
1738231434.665,-46.875,-30.762,-92.773,-36.133,-149.414
1738231434.669,-42.480,-28.809,-126.953,-28.809,116.699
1738231434.673,-43.945,-27.832,-151.855,-50.293,-139.648
1738231434.676,-45.410,-36.133,-177.734,-69.336,-285.156
1738231434.680,-57.129,-35.645,-188.477,-51.758,-135.254
1738231434.684,-55.664,-27.344,-155.273,-40.527,-7.812
1738231434.688,-46.875,-32.715,-149.902,-52.246,-133.789
1738231434.692,-42.969,-39.062,-152.832,-56.641,-282.227
1738231434.696,-38.086,-40.527,-154.297,-39.551,87.402
1738231434.700,-45.410,-39.062,-157.715,-20.996,368.652
1738231434.703,-62.500,-34.180,-134.766,-28.809,55.176
1738231434.707,-47.363,-25.879,-100.098,-41.992,-69.824
1738231434.711,-35.156,-17.090,-88.379,-48.828,-106.934
1738231434.715,-43.945,-20.020,-75.684,-24.414,-139.160
1738231434.719,-50.781,-23.438,-90.332,-7.324,-193.359
1738231434.735,-41.992,-20.508,-133.789,-23.926,-160.156
1738231434.739,-22.949,-24.902,-131.348,-16.113,87.891
1738231434.743,-38.574,-27.832,-87.402,-19.531,171.875
1738231434.747,-41.992,-19.043,-54.199,-38.086,-4.395
1738231434.751,-29.785,-8.301,-67.383,-32.715,-32.227
1738231434.755,-34.668,-10.254,-79.102,-25.879,410.156
1738231434.759,-32.227,-6.836,-44.434,-28.320,454.590
1738231434.762,-38.574,-2.441,-12.207,-41.016,-190.918
1738231434.766,-33.691,0.488,23.438,-49.316,-303.711
1738231434.770,-34.180,2.441,26.367,-33.691,-66.895
1738231434.774,-47.363,-4.883,33.691,-28.809,-28.809
1738231434.778,-38.086,-2.441,58.105,-37.109,-186.523
1738231434.780,-32.715,-1.465,47.852,-36.621,-199.219
1738231434.784,-35.645,-7.812,24.414,-26.855,67.871
1738231434.788,-48.340,-9.277,12.207,-21.484,-105.957
1738231434.792,-52.246,-15.625,17.090,-9.766,-200.684
1738231434.796,-11.719,-13.672,31.250,-25.879,-113.281
1738231434.800,-13.672,-12.695,24.414,-55.176,-29.785
1738231434.804,-37.598,-17.090,5.859,-56.152,-43.945
1738231434.807,-43.457,-17.090,4.883,-49.805,-242.676
1738231434.811,-51.270,-19.043,4.395,-42.480,5.371
1738231434.815,-44.434,-16.602,15.137,-39.062,406.738
1738231434.819,-44.434,-17.578,60.547,-39.062,-12.207
1738231434.823,-45.898,-16.113,39.062,-32.227,-311.035
1738231434.825,-42.969,-9.766,-26.367,-26.855,-43.945
1738231434.829,-46.875,-9.277,-46.387,-37.109,166.016
1738231434.833,-42.969,-7.812,-40.039,-66.406,-33.203
1738231434.837,-32.227,-8.301,-60.059,-62.012,-157.227
1738231434.841,-30.273,-7.812,-76.172,-45.898,116.699
1738231434.845,-40.039,-6.348,-90.332,-43.457,217.285
1738231434.849,-46.875,-7.324,-137.207,-50.293,62.500
1738231434.852,-30.762,-1.953,-177.734,-65.918,-0.977
1738231434.856,-17.578,-3.418,-184.082,-58.594,219.727
1738231434.860,-26.367,-13.672,-155.762,-54.199,85.449
1738231434.864,-34.668,-17.090,-153.320,-87.891,-287.109
1738231434.868,-41.016,-24.414,-196.777,-92.285,-174.805
1738231434.870,-37.598,-20.996,-207.031,-88.867,-91.309
1738231434.874,-19.531,-15.137,-208.496,-99.609,-224.121
1738231434.878,-26.855,-16.602,-229.980,-87.402,-290.527
1738231434.882,-38.086,-23.438,-259.277,-78.613,-130.859
1738231434.886,-46.387,-30.762,-271.484,-61.035,61.523
1738231434.890,-56.641,-27.832,-269.043,-42.969,124.023
1738231434.894,-53.711,-28.809,-253.418,-47.852,-91.797
1738231434.897,-47.363,-27.344,-252.441,-41.992,-78.613
1738231434.901,-38.086,-23.926,-268.066,-35.645,297.363
1738231434.905,-34.180,-26.855,-243.652,-39.551,14.160
1738231434.909,-29.297,-23.926,-195.801,-24.902,-174.805
1738231434.913,-22.949,-20.508,-167.480,-32.715,-102.051
1738231434.915,-22.461,-20.020,-164.551,-43.945,-135.254
1738231434.919,-26.855,-21.973,-138.184,-35.156,-243.652
1738231434.923,-23.438,-21.484,-134.766,-13.184,-113.281
1738231434.927,-21.484,-21.973,-168.457,-6.348,386.230
1738231434.931,-16.113,-23.438,-159.180,-35.645,156.250
1738231434.935,-27.344,-25.879,-148.926,-36.133,-77.148
1738231434.939,-35.156,-30.273,-157.227,-20.996,57.617
1738231434.942,-39.062,-35.156,-174.316,-24.902,425.293
1738231434.946,-30.762,-32.227,-176.758,-33.691,645.020
1738231434.950,-10.742,-28.809,-175.293,-41.504,-28.809
1738231434.954,-14.648,-35.645,-191.406,-34.668,-299.805
1738231434.958,-32.715,-38.574,-211.914,-17.578,-165.527
1738231434.976,-34.668,-32.227,-242.676,24.902,-165.527
1738231434.980,-25.391,-38.574,-263.184,20.020,-109.863
1738231434.984,-15.625,-39.551,-274.414,-22.949,-83.008
1738231434.988,-14.648,-34.668,-280.273,-32.227,-140.137
1738231434.992,-23.438,-41.016,-269.043,-30.273,-168.457
1738231434.996,-22.461,-41.504,-257.324,-27.832,-86.426
1738231435.000,-25.391,-41.504,-245.605,-14.160,272.949
1738231435.003,-19.043,-45.898,-226.074,-16.113,591.797
1738231435.007,-17.090,-45.898,-196.777,-30.273,150.391
1738231435.011,-21.973,-37.109,-179.199,-17.578,-256.836
1738231435.015,-28.809,-41.992,-195.801,-36.621,-71.289
1738231435.019,-34.180,-50.781,-196.777,-48.828,66.406
1738231435.005,-23.438,-47.363,-179.199,-38.574,-145.996
1738231435.009,-24.414,-42.969,-172.363,-32.227,-231.445
1738231435.013,-31.250,-51.758,-185.059,-27.344,-41.504
1738231435.017,-38.086,-57.129,-188.965,-20.508,-5.371
1738231435.021,-39.062,-54.688,-176.758,-13.184,-70.312
1738231435.025,-20.996,-49.805,-177.734,2.441,81.543
1738231435.029,-19.043,-47.852,-177.246,13.184,378.906
1738231435.032,-44.922,-57.129,-165.039,-12.695,165.527
1738231435.036,-45.898,-62.988,-166.504,-4.883,-157.227
1738231435.040,-22.949,-54.688,-173.340,2.441,-9.277
1738231435.044,-15.137,-48.828,-174.316,-21.484,553.223
1738231435.048,-24.902,-46.387,-151.367,-29.785,707.031
1738231435.065,-27.344,-48.828,-124.023,-17.090,12.207
1738231435.069,-33.203,-47.852,-137.207,3.418,-205.566
1738231435.073,-54.688,-46.875,-139.160,20.020,-50.781
1738231435.077,-53.223,-49.805,-122.559,-4.395,-93.750
1738231435.081,-49.805,-47.852,-115.723,-42.969,-261.719
1738231435.085,-42.480,-48.828,-121.094,-42.480,-9.277
1738231435.089,-31.250,-50.781,-128.906,-46.387,344.727
1738231435.092,-32.715,-46.875,-126.465,-44.922,39.062
1738231435.096,-36.621,-47.852,-125.977,-34.180,-146.484
1738231435.100,-30.273,-49.805,-135.742,-29.785,-30.762
1738231435.104,-30.273,-44.434,-136.230,-30.273,-41.992
1738231435.108,-33.691,-44.434,-131.836,-27.344,-207.520
1738231435.125,-25.391,-43.945,-144.043,9.277,-94.238
1738231435.129,-5.859,-42.969,-152.344,9.277,157.715
1738231435.133,-18.066,-41.992,-136.719,-37.109,57.617
1738231435.137,-47.852,-37.598,-131.348,-37.598,-51.270
1738231435.141,-54.688,-35.645,-153.809,-23.926,-133.789
1738231435.145,-55.664,-45.898,-193.359,-4.883,278.320
1738231435.149,-45.898,-45.410,-185.059,3.906,493.164
1738231435.152,-32.715,-30.273,-154.297,-23.438,-19.531
1738231435.156,-35.645,-30.273,-148.438,-51.270,-257.324
1738231435.160,-41.016,-34.180,-158.691,-45.898,212.891
1738231435.164,-46.387,-31.250,-143.555,-26.855,323.242
1738231435.168,-35.156,-22.949,-129.883,-17.578,-74.707
1738231435.170,-23.926,-26.855,-133.789,-8.301,-179.199
1738231435.174,-30.273,-38.086,-131.836,-9.766,-169.434
1738231435.178,-26.367,-34.180,-133.301,-17.578,-221.680
1738231435.182,-24.902,-22.461,-144.043,-7.324,-69.824
1738231435.186,-24.902,-24.414,-145.020,-29.297,151.367
1738231435.190,-10.742,-19.043,-131.836,-49.805,149.414
1738231435.194,-5.371,-18.066,-123.047,-50.293,7.324
1738231435.197,-9.766,-26.855,-124.023,-31.738,-171.387
1738231435.201,-15.625,-22.461,-126.953,-23.926,-80.566
1738231435.205,-24.902,-20.996,-98.633,-20.996,55.664
1738231435.209,-24.414,-23.926,-65.430,-15.137,-98.633
1738231435.213,-20.996,-24.902,-60.059,-30.273,-246.582
1738231435.200,-19.043,-26.367,-74.219,-36.621,20.996
1738231435.204,-20.508,-32.227,-68.359,-13.184,427.246
1738231435.208,-28.809,-35.156,-51.270,-8.301,174.316
1738231435.212,-26.367,-33.203,-48.340,-28.809,21.484
1738231435.216,-20.996,-33.203,-48.828,-22.461,164.062
1738231435.220,-27.832,-29.785,-51.270,-5.371,169.434
1738231435.224,-26.855,-28.320,-56.641,2.930,22.949
1738231435.227,-24.902,-34.180,-67.871,-4.883,147.949
1738231435.231,-20.996,-34.180,-58.105,-29.297,137.695
1738231435.235,-15.625,-21.973,-50.293,-29.785,-161.621
1738231435.239,-20.020,-19.043,-52.246,-17.578,-284.668
1738231435.243,-22.949,-32.227,-61.523,-14.648,-179.688
1738231435.245,-35.645,-36.133,-77.637,-14.160,383.301
1738231435.249,-49.316,-30.273,-47.852,-29.785,356.934
1738231435.253,-49.805,-27.832,-37.598,-35.156,-209.473
1738231435.257,-36.621,-27.344,-59.082,-34.180,-244.629
1738231435.290,-28.320,-21.973,-90.820,-48.828,-112.305
1738231435.294,-18.066,-17.578,-100.098,-49.316,-376.465
1738231435.298,-22.949,-16.602,-115.723,-34.180,-215.332
1738231435.302,-43.457,-14.648,-131.348,-30.273,266.602
1738231435.306,-35.156,-16.602,-105.957,-42.969,151.855
1738231435.310,-24.414,-14.648,-104.492,-44.434,-41.016
1738231435.314,-19.531,-12.695,-112.305,-42.480,-43.457
1738231435.317,-29.785,-13.184,-117.188,-49.316,261.719
1738231435.321,-53.711,-17.090,-111.816,-30.273,387.695
1738231435.325,-51.758,-23.438,-93.262,-41.504,-96.680
1738231435.329,-48.340,-24.902,-102.051,-79.590,-180.664
1738231435.333,-46.387,-26.855,-103.027,-60.547,9.277
1738231435.336,-49.316,-25.391,-92.285,-43.945,-147.949
1738231435.340,-58.105,-22.949,-102.051,-48.828,-207.520
1738231435.344,-54.199,-27.344,-98.633,-63.477,-70.312
1738231435.348,-43.945,-21.484,-83.984,-73.242,21.973
1738231435.352,-43.457,-14.160,-83.496,-65.430,-187.500
1738231435.356,-46.875,-13.672,-80.078,-52.734,-224.121
1738231435.360,-40.039,-17.578,-79.590,-25.391,217.285
1738231435.363,-28.809,-20.020,-78.613,-13.672,531.250
1738231435.367,-32.227,-20.996,-59.082,-33.691,-28.320
1738231435.371,-41.016,-22.461,-57.129,-38.574,-326.660
1738231435.375,-34.180,-19.531,-64.941,-26.367,-166.016
1738231435.379,-31.738,-18.066,-63.965,-28.809,-129.395
1738231435.395,-38.086,-22.461,-61.035,-54.199,-148.926
1738231435.399,-31.250,-18.066,-58.594,-64.941,-150.879
1738231435.403,-30.762,-14.648,-58.105,-49.805,104.004
1738231435.407,-36.621,-19.531,-43.457,-50.293,109.863
1738231435.411,-38.574,-27.344,-39.551,-31.738,-126.465
1738231435.415,-18.555,-26.855,-46.875,10.254,40.039
1738231435.419,-34.180,-14.648,-60.059,-9.277,515.625
1738231435.422,-60.547,-10.742,-57.129,-65.430,568.359
1738231435.426,-48.828,-15.625,-28.809,-74.707,-98.145
1738231435.430,-45.410,-14.648,-39.062,-46.387,-238.770
1738231435.434,-42.969,-13.672,-44.434,-31.250,-67.383
1738231435.438,-23.926,-8.301,-34.668,-30.762,-207.520
1738231435.427,-28.809,-5.371,-41.016,-41.992,-324.219
1738231435.431,-27.344,-10.742,-44.434,-27.832,-277.344
1738231435.435,-29.297,-12.207,-45.898,-24.414,-196.777
1738231435.439,-50.781,-11.719,-45.898,-41.992,-55.176
1738231435.443,-49.316,-13.672,-39.062,-49.805,-34.668
1738231435.447,-35.156,-13.184,-49.316,-47.363,59.570
1738231435.451,-20.020,-12.207,-52.734,-32.715,489.746
1738231435.454,-17.090,-9.766,-42.969,-29.785,162.598
1738231435.458,-23.438,-12.207,-45.898,-37.598,-239.258
1738231435.462,-20.996,-12.695,-43.457,-48.828,-11.230
1738231435.466,-27.344,-9.277,-36.133,-51.758,269.531
1738231435.470,-35.156,-12.695,-27.832,-44.922,-143.066
1738231435.485,-41.504,-16.113,-43.457,-32.715,-277.832
1738231435.489,-49.805,-17.090,-49.805,-26.855,-54.688
1738231435.493,-37.109,-21.484,-35.156,-30.762,-120.605
1738231435.497,-27.832,-13.184,-29.785,-37.109,-217.285
1738231435.501,-31.250,-8.301,-27.832,-35.645,-250.977
1738231435.505,-34.180,-14.160,-50.781,-15.137,268.555
1738231435.509,-42.480,-13.672,-47.363,-15.137,569.336
1738231435.512,-34.668,-7.812,-23.926,-36.621,96.191
1738231435.516,-27.344,-9.277,-25.391,-43.457,-168.457
1738231435.520,-30.762,-12.695,-30.762,-39.551,89.355
1738231435.524,-31.738,-10.742,-20.508,-31.738,-11.230
1738231435.528,-24.902,-13.184,-24.902,-16.113,-228.027
1738231435.531,-20.508,-14.160,-29.785,-22.461,-189.453
1738231435.535,-34.668,-10.254,-24.414,-53.711,-221.191
1738231435.539,-44.434,-9.277,-21.973,-59.082,-249.023
1738231435.543,-39.551,-7.324,-22.949,-38.574,-260.742
1738231435.547,-32.715,-7.324,-32.227,-28.809,-136.719
1738231435.551,-35.156,-17.090,-23.438,-37.109,116.699
1738231435.555,-46.875,-20.508,-16.602,-38.086,134.277
1738231435.558,-43.457,-9.277,-28.320,-36.621,-188.965
1738231435.562,-27.832,-4.395,-52.246,-42.969,-166.992
1738231435.566,-23.926,-7.324,-68.359,-33.691,512.695
1738231435.570,-27.344,-3.906,-45.898,-43.945,259.766
1738231435.574,-26.855,-2.441,-41.992,-59.570,-271.484
1738231435.575,-25.391,-13.184,-56.641,-47.852,-152.344
1738231435.579,-34.668,-23.438,-52.734,-38.086,-202.637
1738231435.583,-33.691,-23.438,-56.152,-23.438,-161.621
1738231435.587,-19.043,-20.508,-56.641,-21.484,114.258
1738231435.591,-30.762,-16.602,-51.758,-28.809,92.285
1738231435.595,-39.062,-17.578,-48.340,-35.645,-75.684
1738231435.599,-40.527,-17.578,-46.875,-44.922,-67.871
1738231435.602,-51.758,-18.066,-47.363,-33.691,-122.070
1738231435.606,-44.434,-17.090,-60.059,-8.789,262.695
1738231435.610,-42.480,-15.625,-43.945,-16.113,485.840
1738231435.614,-39.551,-11.719,-29.785,-26.855,-117.188
1738231435.618,-25.391,-11.719,-55.176,-29.785,-170.898
1738231435.620,-23.438,-18.555,-61.523,-24.414,115.234
1738231435.624,-30.273,-20.508,-48.340,-18.066,-58.105
1738231435.628,-25.879,-18.066,-52.246,-46.387,-245.117
1738231435.632,-20.996,-11.230,-60.547,-60.059,-273.438
1738231435.636,-33.203,-14.160,-52.734,-44.922,-235.352
1738231435.640,-26.367,-21.484,-66.406,-21.973,3.418
1738231435.644,-23.438,-23.926,-67.871,-31.738,-54.199
1738231435.647,-26.367,-28.809,-62.500,-56.152,-96.191
1738231435.651,-20.996,-26.855,-68.848,-46.875,237.793
1738231435.655,-31.738,-17.578,-52.734,-49.805,-160.645
1738231435.659,-40.039,-13.672,-61.523,-41.016,-322.754
1738231435.663,-30.273,-16.602,-75.195,-27.832,-81.543
1738231435.666,-31.738,-14.648,-65.918,-49.316,-185.059
1738231435.670,-34.180,-17.090,-54.688,-52.734,-239.746
1738231435.674,-27.832,-26.855,-57.129,-48.340,-203.613
1738231435.678,-38.574,-28.809,-76.172,-40.527,216.797
1738231435.682,-45.898,-33.203,-65.918,-33.691,381.348
1738231435.686,-31.738,-33.691,-54.199,-40.039,-36.621
1738231435.690,-33.203,-30.762,-60.547,-32.715,-165.039
1738231435.693,-33.691,-29.785,-66.406,-19.531,172.852
1738231435.697,-19.043,-20.996,-59.570,-22.949,181.152
1738231435.701,-11.719,-21.484,-54.199,-19.531,-143.066
1738231435.705,-32.715,-31.250,-54.688,-41.016,-199.707
1738231435.709,-57.129,-31.738,-49.316,-67.383,-210.449
1738231435.711,-55.176,-30.762,-41.992,-65.918,-260.254
1738231435.715,-47.852,-36.621,-45.898,-41.992,-216.797
1738231435.719,-47.852,-37.598,-49.316,-26.367,-73.730
1738231435.723,-39.551,-35.156,-37.598,-35.645,-63.965
1738231435.727,-45.410,-39.062,-27.344,-41.016,-117.188
1738231435.731,-60.059,-38.574,-23.926,-38.574,-94.238
1738231435.735,-51.758,-34.180,-40.039,-32.715,145.020
1738231435.738,-35.645,-35.156,-55.176,-22.949,575.684
1738231435.742,-27.832,-33.691,-31.250,-43.457,189.453
1738231435.746,-43.457,-38.574,-31.250,-62.012,-277.832
1738231435.750,-49.316,-44.434,-41.992,-47.363,-195.312
1738231435.754,-46.875,-43.457,-37.109,-40.527,-166.992
1738231435.770,-51.270,-44.922,-42.480,-43.457,-146.484
1738231435.774,-35.156,-41.992,-40.527,-31.738,-157.715
1738231435.778,-31.250,-34.668,-42.480,-23.926,-32.227
1738231435.782,-40.039,-41.504,-40.039,-33.203,-25.391
1738231435.786,-42.969,-40.527,-31.250,-28.809,-180.176
1738231435.790,-38.086,-32.227,-30.762,-8.301,-9.766
1738231435.794,-15.137,-29.785,-28.809,-15.625,446.777
1738231435.797,-9.277,-24.414,-9.766,-35.156,766.602
1738231435.801,-4.883,-13.672,22.949,-20.996,151.367
1738231435.805,11.719,-8.301,28.320,-15.625,-273.926
1738231435.809,9.766,-17.578,25.879,-17.090,-110.840
1738231435.813,9.766,-21.973,38.086,-14.648,-137.207
1738231435.801,4.395,-13.672,41.504,-16.113,-260.742
1738231435.805,-1.953,-6.836,52.734,-12.207,-283.203
1738231435.809,2.441,-8.789,81.543,0.977,-210.449
1738231435.813,5.859,-7.324,95.703,14.160,-174.316
1738231435.817,12.695,-1.465,102.539,16.602,-155.762
1738231435.821,2.930,-7.324,111.328,4.883,-81.543
1738231435.825,-23.438,-15.625,124.023,-9.766,24.902
1738231435.828,-26.855,-20.508,143.066,-0.977,-123.047
1738231435.832,-35.156,-23.438,140.137,-6.836,-184.082
1738231435.836,-37.109,-29.297,131.836,-24.414,164.551
1738231435.840,-26.855,-28.320,145.020,-31.738,115.234
1738231435.844,-27.344,-24.414,145.508,-41.016,-200.684
1738231435.876,-24.902,-24.902,133.789,-38.574,-268.066
1738231435.880,-24.414,-26.855,110.840,-12.207,55.664
1738231435.884,-25.391,-32.715,105.469,-12.207,494.141
1738231435.888,-27.344,-35.645,125.488,-28.809,100.098
1738231435.892,-39.062,-29.785,105.957,-38.574,-284.180
1738231435.896,-36.133,-24.902,54.688,-23.438,124.512
1738231435.900,-33.691,-24.902,37.598,-8.789,449.707
1738231435.903,-35.156,-24.902,26.367,-51.758,60.059
1738231435.907,-30.273,-34.668,-6.836,-71.289,-168.457
1738231435.911,-28.809,-42.480,-35.156,-51.270,-11.230
1738231435.915,-26.855,-41.016,-41.992,-38.574,-205.566
1738231435.919,-32.227,-46.387,-60.547,-28.320,-227.539
1738231435.905,-28.320,-34.668,-74.707,-33.203,17.090
1738231435.909,-21.973,-22.949,-73.730,-46.875,44.434
1738231435.913,-26.367,-26.855,-78.613,-48.828,-181.152
1738231435.917,-31.250,-28.809,-87.402,-43.945,-340.332
1738231435.921,-48.828,-32.715,-108.887,-25.879,-247.559
1738231435.925,-54.199,-39.551,-114.258,-17.578,-39.062
1738231435.929,-39.062,-41.504,-98.145,-46.387,-31.738
1738231435.932,-48.340,-38.574,-98.145,-59.570,-240.234
1738231435.936,-46.387,-38.086,-106.934,-46.875,-199.219
1738231435.940,-38.086,-34.668,-106.445,-39.551,-80.078
1738231435.944,-45.898,-35.156,-106.934,-37.109,-109.863
1738231435.948,-39.551,-37.109,-114.746,-54.199,-238.770
1738231435.952,-30.762,-35.645,-126.465,-54.688,-28.320
1738231435.956,-29.297,-36.621,-122.559,-43.457,273.926
1738231435.960,-20.020,-34.180,-118.164,-27.832,58.105
1738231435.964,-26.855,-38.574,-123.535,-16.602,-66.406
1738231435.968,-33.691,-44.434,-127.441,-33.691,242.676
1738231435.972,-34.668,-38.574,-119.629,-43.945,424.316
1738231435.976,-32.227,-38.086,-115.723,-39.062,-66.406
1738231435.979,-26.367,-40.039,-124.023,-26.855,-203.125
1738231435.983,-33.691,-38.574,-135.254,-21.973,270.020
1738231435.987,-34.668,-34.180,-113.281,-41.504,184.082
1738231435.991,-27.344,-32.227,-105.469,-48.828,-290.527
1738231435.995,-32.715,-30.273,-113.281,-44.434,-290.039
1738231435.995,-45.898,-31.738,-116.699,-41.992,-129.395
1738231435.999,-49.805,-36.621,-120.117,-31.738,-114.746
1738231436.003,-40.527,-33.203,-108.887,-29.297,-184.082
1738231436.007,-36.133,-32.715,-108.398,-29.785,-246.094
1738231436.011,-33.691,-37.109,-107.910,-28.320,-105.469
1738231436.015,-27.344,-34.668,-105.469,-28.809,33.691
1738231436.019,-26.855,-28.809,-102.051,-39.551,-13.184
1738231436.022,-32.715,-28.809,-85.938,-58.594,34.668
1738231436.026,-35.156,-25.879,-74.219,-62.012,419.434
1738231436.030,-34.180,-20.996,-58.105,-51.270,110.352
1738231436.034,-32.715,-17.090,-60.059,-37.598,-263.672
1738231436.038,-19.531,-12.695,-69.336,-15.625,-56.641
1738231436.041,-7.324,-10.254,-50.781,-11.230,-73.730
1738231436.045,-7.812,-10.742,-36.621,-27.832,-250.977
1738231436.049,-7.324,-8.789,-33.203,-29.785,-283.203
1738231436.053,-2.930,-5.371,-31.738,-8.301,56.152
1738231436.057,-11.230,-0.977,-20.996,4.883,125.000
1738231436.061,-19.043,0.977,-12.695,-4.395,-89.844
1738231436.065,-24.902,-6.836,-17.578,-22.949,-124.512
1738231436.068,-28.809,-12.207,-16.602,-21.973,167.480
1738231436.072,-25.879,-9.277,6.836,-20.020,84.961
1738231436.076,-20.020,-8.301,13.672,-10.254,-222.168
1738231436.080,-14.160,-11.230,0.488,0.000,-134.277
1738231436.084,-22.461,-14.160,-8.301,0.000,222.168
1738231436.087,-26.855,-12.207,0.977,-4.883,67.871
1738231436.091,-28.320,-21.484,-17.090,-5.371,-187.988
1738231436.095,-32.715,-31.250,-37.109,3.906,-92.285
1738231436.099,-29.297,-29.785,-30.273,-4.883,-35.645
1738231436.103,-29.785,-27.832,-36.621,-28.320,-127.441
1738231436.107,-29.297,-30.762,-51.270,-33.203,-175.781
1738231436.111,-23.438,-33.691,-64.453,-18.555,87.402
1738231436.114,-14.160,-35.645,-79.590,-10.254,455.078
1738231436.118,-20.020,-35.156,-71.777,-32.227,115.723
1738231436.122,-31.250,-43.457,-75.684,-54.199,-124.512
1738231436.126,-35.156,-48.828,-78.613,-48.340,-50.293
1738231436.130,-43.457,-47.852,-65.430,-40.039,-123.535
1738231436.145,-44.434,-42.969,-64.941,-30.762,-207.031
1738231436.149,-34.180,-39.551,-69.336,-27.832,-138.184
1738231436.153,-22.461,-42.480,-73.242,-38.086,-8.301
1738231436.157,-25.879,-40.039,-72.266,-43.457,-69.824
1738231436.161,-32.227,-41.016,-66.895,-41.504,-223.633
1738231436.165,-35.156,-44.922,-72.754,-35.645,-113.281
1738231436.169,-33.691,-48.828,-80.078,-39.551,460.938
1738231436.172,-37.598,-48.340,-67.383,-47.363,652.344
1738231436.176,-45.410,-45.410,-48.340,-42.480,-67.871
1738231436.180,-38.574,-40.527,-53.711,-37.598,-293.945
1738231436.184,-43.457,-44.922,-60.547,-39.062,-115.723
1738231436.188,-49.805,-51.758,-58.105,-36.133,-118.164
1738231436.190,-36.621,-44.922,-58.105,-40.527,-158.203
1738231436.194,-34.668,-35.156,-63.477,-43.457,-180.176
1738231436.198,-39.551,-40.527,-60.547,-29.785,-52.734
1738231436.202,-41.504,-44.434,-62.988,-22.949,-148.438
1738231436.206,-38.086,-37.109,-73.730,-24.902,-229.004
1738231436.210,-24.414,-31.738,-70.312,-29.785,-26.855
1738231436.214,-24.902,-32.715,-70.801,-32.227,38.086
1738231436.217,-32.227,-40.039,-65.918,-30.273,-160.156
1738231436.221,-29.785,-40.039,-69.824,-21.973,-249.023
1738231436.225,-31.738,-42.480,-85.938,-9.766,40.527
1738231436.229,-39.551,-45.410,-81.543,-17.090,398.438
1738231436.233,-40.039,-38.574,-62.500,-30.273,-46.387
1738231436.236,-38.086,-39.062,-65.918,-29.785,-303.223
1738231436.240,-34.668,-40.039,-79.102,-31.250,-103.516
1738231436.244,-33.691,-36.621,-73.242,-28.809,-46.875
1738231436.248,-40.039,-36.621,-66.895,-43.945,-25.879
1738231436.252,-38.086,-38.574,-69.824,-53.223,-74.707
1738231436.256,-27.832,-38.574,-77.148,-51.270,239.746
1738231436.260,-32.227,-41.504,-80.566,-59.082,567.871
1738231436.263,-42.969,-41.992,-72.754,-55.664,9.277
1738231436.267,-45.410,-37.598,-75.684,-57.129,-249.512
1738231436.271,-38.574,-40.527,-86.914,-62.012,178.711
1738231436.275,-14.648,-33.203,-71.289,-49.316,179.688
1738231436.279,1.465,-31.250,-56.152,-35.645,-284.668
1738231436.280,-27.832,-48.340,-62.500,-47.363,-181.641
1738231436.284,-55.664,-54.199,-57.129,-68.848,-20.996
1738231436.288,-69.336,-47.852,-55.176,-79.102,-212.891
1738231436.292,-73.242,-49.805,-53.711,-73.730,-338.867
1738231436.325,-53.711,-52.734,-11.719,-64.453,-112.305
1738231436.329,-49.805,-53.711,-2.930,-52.246,-224.609
1738231436.333,-41.504,-44.922,-5.371,-27.832,-265.137
1738231436.337,-35.645,-42.480,-16.113,-13.184,-36.133
1738231436.341,-20.508,-40.039,-14.160,-11.719,199.219
1738231436.345,-13.672,-34.668,-3.418,-21.484,81.543
1738231436.349,-22.949,-29.785,-5.859,-24.902,-139.648
1738231436.352,-24.414,-31.738,-9.766,-9.277,-166.016
1738231436.356,-10.254,-27.832,-20.508,18.066,271.484
1738231436.360,-4.395,-24.414,-7.324,16.113,493.164
1738231436.364,-13.184,-23.926,26.855,-6.348,-172.852
1738231436.368,-8.789,-15.625,35.645,0.977,-341.797
1738231436.385,-10.254,-6.836,48.340,17.090,-91.797
1738231436.389,-22.461,-5.371,65.918,28.320,-121.094
1738231436.393,-15.625,-9.766,69.336,18.066,-182.129
1738231436.397,-12.695,-14.160,72.266,-1.953,-164.062
1738231436.401,-17.578,-20.508,85.449,0.488,-71.777
1738231436.405,-20.020,-23.438,88.379,4.883,-25.879
1738231436.409,-22.461,-26.855,88.379,5.371,-116.211
1738231436.412,-15.625,-29.297,91.797,7.812,-5.371
1738231436.416,-8.789,-36.133,92.285,-3.418,370.605
1738231436.420,-12.207,-38.086,101.562,-15.137,70.312
1738231436.424,-17.090,-29.297,91.797,-4.395,-225.586
1738231436.428,-19.043,-33.203,71.777,1.465,-79.590
1738231436.415,-6.348,-39.551,71.777,-15.625,48.340
1738231436.419,0.488,-41.016,71.777,-30.762,-190.430
1738231436.423,-6.348,-42.969,57.129,-36.133,-251.465
1738231436.427,-6.348,-46.387,46.875,-30.762,16.113
1738231436.431,-8.301,-47.363,44.434,-17.578,-78.125
1738231436.435,-17.090,-50.293,41.992,-26.367,-9.766
1738231436.439,-19.531,-52.246,38.574,-40.039,125.488
1738231436.442,-26.367,-55.176,27.832,-38.574,161.621
1738231436.446,-41.016,-56.641,33.691,-34.668,-58.105
1738231436.450,-47.852,-50.781,35.156,-26.855,-276.367
1738231436.454,-40.039,-45.898,21.973,-18.066,-147.461
1738231436.458,-35.156,-47.363,8.789,-21.484,287.598
1738231436.463,-46.875,-45.898,15.137,-44.434,208.008
1738231436.467,-46.875,-46.875,23.438,-48.828,-281.250
1738231436.471,-45.898,-43.945,9.277,-28.320,-195.801
1738231436.475,-51.758,-39.062,-0.977,-21.484,77.148
1738231436.479,-38.574,-38.574,0.000,-30.273,-77.148
1738231436.483,-34.180,-42.480,-5.859,-41.504,-270.508
1738231436.487,-34.180,-43.457,-15.625,-45.898,-0.488
1738231436.490,-44.434,-39.062,-25.879,-38.086,404.297
1738231436.494,-55.664,-38.574,-13.184,-31.738,40.527
1738231436.498,-40.527,-37.598,-7.812,-35.156,-213.379
1738231436.502,-33.691,-33.203,-19.043,-41.504,-154.297
1738231436.506,-39.551,-37.109,-18.066,-47.852,-238.770
1738231436.505,-42.969,-39.551,-16.602,-48.340,-270.996
1738231436.509,-41.992,-32.715,-19.531,-37.598,-143.066
1738231436.513,-32.227,-32.227,-20.020,-33.691,3.906
1738231436.517,-36.133,-38.574,-9.766,-42.480,25.391
1738231436.521,-54.199,-40.039,3.418,-39.551,-47.852
1738231436.525,-59.570,-38.574,5.371,-24.902,-65.430
1738231436.529,-51.270,-45.898,0.000,-27.832,414.551
1738231436.532,-38.086,-49.316,19.531,-49.316,570.801
1738231436.536,-36.133,-45.410,35.156,-62.012,-136.719
1738231436.540,-38.086,-45.410,17.090,-60.547,-349.609
1738231436.544,-38.574,-53.223,-1.953,-49.316,144.043
1738231436.548,-47.363,-46.387,10.254,-39.062,95.215
1738231436.569,-38.086,-35.156,20.020,-41.504,-170.898
1738231436.573,-25.391,-34.180,17.090,-52.246,-165.527
1738231436.577,-31.250,-40.039,13.672,-58.105,-164.551
1738231436.581,-32.715,-43.945,9.766,-49.805,-200.684
1738231436.585,-34.180,-37.598,3.906,-33.203,-205.566
1738231436.589,-45.410,-36.621,4.883,-27.832,59.570
1738231436.593,-40.527,-35.156,13.672,-38.086,317.383
1738231436.596,-37.109,-36.133,15.625,-44.922,-28.320
1738231436.600,-38.574,-40.039,10.742,-42.480,-276.855
1738231436.604,-34.668,-42.969,-2.441,-18.555,-59.082
1738231436.608,-24.902,-43.945,2.441,-13.184,33.203
1738231436.612,-20.996,-35.645,13.672,-42.969,-161.133
1738231436.610,-24.414,-36.621,18.066,-42.480,-258.789
1738231436.614,-17.578,-41.992,9.277,-28.320,-65.918
1738231436.618,-25.391,-38.574,7.324,-23.926,125.488
1738231436.622,-32.715,-37.109,11.719,-16.113,6.348
1738231436.626,-14.160,-31.250,13.184,-21.484,-156.250
1738231436.630,-17.578,-28.809,4.395,-29.297,141.113
1738231436.634,-21.484,-29.297,10.254,-26.367,180.176
1738231436.637,-17.578,-24.902,9.277,-10.254,-74.219
1738231436.641,-14.160,-26.855,0.000,-12.695,-50.293
1738231436.645,-5.371,-30.762,-10.742,-34.668,235.352
1738231436.649,-8.789,-28.320,-19.043,-33.691,581.543
1738231436.653,-14.160,-27.344,-7.324,-20.996,458.984
1738231436.655,-11.719,-27.344,-2.930,-4.395,-29.785
1738231436.659,-15.137,-29.297,-10.254,-6.836,-172.852
1738231436.663,-13.184,-31.738,-6.348,-33.203,-201.172
1738231436.667,-6.836,-27.832,-13.672,-33.691,-340.332
1738231436.671,-22.461,-25.879,-23.438,-28.320,-271.973
1738231436.675,-36.133,-28.809,-26.367,-14.160,89.844
1738231436.679,-35.156,-31.250,-26.367,-4.883,151.367
1738231436.682,-32.715,-27.344,-18.555,-26.855,-150.879
1738231436.686,-25.879,-34.668,-24.902,-20.996,-167.969
1738231436.690,-5.371,-41.016,-33.203,10.742,190.918
1738231436.694,-8.301,-31.738,-32.227,0.488,48.828
1738231436.698,-30.762,-30.762,-37.109,-33.691,-186.523
1738231436.700,-40.527,-40.039,-46.387,-62.500,-57.129
1738231436.704,-37.598,-43.457,-47.363,-71.777,-124.023
1738231436.708,-40.527,-36.133,-52.734,-70.801,-283.203
1738231436.712,-51.758,-33.203,-62.012,-66.895,-79.590
1738231436.716,-36.621,-33.203,-72.266,-47.852,207.520
1738231436.720,-49.805,-31.250,-62.012,-68.848,178.223
1738231436.724,-53.711,-38.086,-55.176,-64.941,-28.809
1738231436.727,-54.199,-32.227,-70.801,-67.383,-108.887
1738231436.731,-62.988,-25.879,-84.961,-67.383,182.129
1738231436.735,-44.434,-26.855,-81.055,-36.133,211.914
1738231436.739,-47.363,-29.785,-75.195,-57.617,-164.551
1738231436.743,-41.504,-32.715,-79.590,-67.871,-241.699
1738231436.748,-32.227,-25.879,-83.008,-58.105,-122.559
1738231436.752,-36.621,-28.809,-81.055,-57.129,-164.551
1738231436.756,-34.668,-36.133,-84.473,-45.898,-232.910
1738231436.760,-35.156,-35.645,-81.055,-37.598,-142.578
1738231436.764,-39.551,-36.133,-72.266,-52.246,-84.961
1738231436.768,-36.133,-35.645,-68.848,-63.965,-68.359
1738231436.772,-30.273,-32.227,-68.848,-48.340,-17.090
1738231436.775,-27.344,-30.762,-78.613,-24.902,136.719
1738231436.779,-30.762,-34.668,-76.172,-28.320,373.047
1738231436.783,-37.598,-36.621,-61.523,-43.945,-39.551
1738231436.787,-35.156,-41.992,-70.312,-35.645,-379.395
1738231436.791,-34.180,-46.387,-84.961,-15.625,-133.301
1738231436.790,-36.133,-47.363,-76.172,-23.438,92.773
1738231436.794,-27.344,-44.434,-59.570,-46.387,-132.812
1738231436.798,-24.414,-44.434,-59.570,-40.039,-255.859
1738231436.802,-23.926,-45.410,-65.918,-35.156,-30.273
1738231436.806,-17.090,-43.945,-64.453,-44.922,57.129
1738231436.810,-19.531,-44.434,-64.453,-28.320,46.875
1738231436.814,-15.137,-44.922,-59.570,-21.484,92.285
1738231436.817,-11.230,-46.875,-70.312,-41.016,304.199
1738231436.821,-21.973,-48.340,-78.125,-43.457,539.062
1738231436.825,-31.250,-45.410,-61.523,-39.062,14.160
1738231436.829,-21.484,-42.480,-65.430,-15.137,-233.887
1738231436.833,-10.742,-44.434,-70.801,-13.672,175.781
1738231436.835,-14.648,-45.410,-59.082,-34.180,-113.281
1738231436.839,-12.695,-43.945,-63.965,-13.672,-413.574
1738231436.843,-18.555,-44.922,-71.777,-19.043,-279.297
1738231436.847,-32.227,-45.898,-69.824,-46.875,-174.316
1738231436.851,-29.785,-43.945,-63.477,-34.668,-194.824
1738231436.855,-23.438,-37.598,-56.152,-42.480,-211.914
1738231436.859,-31.250,-32.227,-60.059,-58.594,33.691
1738231436.862,-26.855,-31.250,-60.547,-42.969,275.879
1738231436.866,-17.090,-32.227,-46.387,-14.160,-16.113
1738231436.870,-23.926,-32.715,-46.387,-10.254,-207.520
1738231436.874,-18.555,-33.203,-52.734,-29.297,-101.562
1738231436.878,-4.883,-35.645,-52.246,-17.090,-112.793
1738231436.879,-14.160,-41.992,-59.570,-29.785,-187.988
1738231436.883,-13.672,-43.457,-72.266,-28.320,-230.957
1738231436.887,-0.488,-43.945,-87.891,15.625,238.281
1738231436.891,-13.184,-45.410,-78.613,-10.254,712.402
1738231436.895,-19.531,-39.551,-51.758,-56.152,35.645
1738231436.899,-19.531,-41.016,-60.059,-43.457,-128.418
1738231436.903,-27.832,-50.293,-80.566,-6.348,437.012
1738231436.906,-26.367,-50.781,-69.336,-25.391,455.566
1738231436.910,-20.020,-42.480,-56.152,-54.199,-71.289
1738231436.914,-28.320,-44.922,-69.336,-32.227,-244.141
1738231436.918,-40.527,-50.293,-72.754,-43.457,-108.398
1738231436.922,-37.598,-49.316,-66.895,-41.016,-191.406
1738231436.929,-32.227,-44.922,-71.777,-33.691,-239.258
1738231436.933,-29.785,-40.039,-77.148,-46.387,-74.707
1738231436.937,-32.715,-43.457,-80.078,-59.570,-6.836
1738231436.941,-27.832,-47.852,-83.984,-54.688,-225.098
1738231436.945,-37.109,-47.852,-99.609,-38.086,-335.449
1738231436.949,-39.062,-53.223,-117.188,-41.504,-32.227
1738231436.953,-36.133,-61.035,-123.535,-50.781,232.422
1738231436.956,-45.898,-60.547,-130.371,-52.246,-131.836
1738231436.960,-54.688,-62.500,-143.555,-42.480,-369.629
1738231436.964,-59.082,-65.430,-158.691,-52.246,-133.789
1738231436.968,-50.293,-62.500,-163.574,-79.590,143.555
1738231436.972,-45.410,-60.059,-149.902,-99.121,-40.527
1738231436.985,-47.363,-56.152,-140.625,-86.914,-285.645
1738231436.989,-44.922,-56.152,-139.648,-69.336,-114.258
1738231436.993,-53.223,-58.105,-137.695,-59.570,25.391
1738231436.997,-58.105,-62.988,-136.230,-51.758,-2.930
1738231437.001,-47.363,-61.035,-125.977,-64.453,-104.004
1738231437.005,-36.621,-57.617,-129.395,-65.430,297.363
1738231437.009,-36.621,-59.570,-127.930,-59.082,868.164
1738231437.012,-49.316,-54.199,-104.980,-43.945,358.887
1738231437.016,-57.617,-57.129,-109.375,-11.719,-135.742
1738231437.020,-50.293,-62.500,-107.910,-8.789,-71.777
1738231437.024,-49.316,-58.105,-99.121,-40.039,-222.656
1738231437.028,-47.363,-51.270,-104.004,-80.566,-412.598
1738231437.033,-38.574,-50.293,-104.004,-76.172,-256.836
1738231437.037,-34.180,-50.293,-99.121,-35.156,119.141
1738231437.041,-34.668,-51.758,-89.355,-47.852,-80.078
1738231437.045,-38.574,-49.316,-82.520,-79.590,-343.262
1738231437.049,-23.926,-49.316,-87.402,-65.918,-190.430
1738231437.053,-8.301,-55.664,-94.238,-23.926,138.184
1738231437.057,-29.785,-48.828,-95.215,-33.691,120.605
1738231437.060,-41.992,-46.875,-85.938,-67.383,-115.723
1738231437.064,-17.090,-51.270,-89.844,-55.664,-95.703
1738231437.068,-6.348,-46.875,-93.262,-54.199,273.438
1738231437.072,-19.043,-43.457,-78.125,-62.012,-25.391
1738231437.076,-17.578,-45.410,-81.543,-47.852,-218.750
1738231437.090,-2.930,-40.527,-81.055,-41.016,-39.062
1738231437.094,-10.742,-35.156,-62.988,-37.598,-123.047
1738231437.098,-20.020,-37.598,-57.129,-32.715,-240.234
1738231437.102,-19.531,-37.109,-61.523,-31.250,-94.727
1738231437.106,-27.832,-37.109,-70.312,-20.508,175.293
1738231437.110,-25.879,-38.086,-64.453,-0.977,211.426
1738231437.114,-26.367,-42.480,-51.758,2.930,70.312
1738231437.117,-31.738,-44.434,-53.711,-2.930,-169.922
1738231437.121,-32.715,-42.969,-70.801,13.672,115.723
1738231437.125,-27.832,-44.434,-75.684,5.371,617.676
1738231437.129,-23.438,-41.992,-49.316,-67.871,154.297
1738231437.133,-21.484,-36.621,-44.922,-72.266,-232.422
1738231437.120,-15.625,-39.062,-49.805,-31.250,-204.102
1738231437.124,-12.695,-41.992,-47.363,-23.926,-250.977
1738231437.128,-20.508,-37.598,-54.688,-16.113,-212.402
1738231437.132,-20.508,-36.133,-60.547,-12.207,-99.609
1738231437.136,-13.672,-41.504,-55.664,-22.461,-71.777
1738231437.140,-17.090,-41.504,-52.734,-10.742,-120.117
1738231437.144,-22.949,-36.621,-52.734,1.465,-95.215
1738231437.147,-27.832,-41.016,-64.453,4.395,49.316
1738231437.151,-29.785,-43.945,-59.082,-3.418,137.207
1738231437.155,-24.902,-44.434,-50.781,-34.668,-67.871
1738231437.159,-30.762,-53.223,-61.035,-49.805,-260.254
1738231437.163,-23.926,-54.688,-69.824,-20.996,-68.848
1738231437.180,-12.695,-46.387,-73.242,-11.719,493.164
1738231437.184,-18.555,-46.387,-55.664,-10.254,176.270
1738231437.188,-16.602,-48.340,-55.664,-26.367,-176.758
1738231437.192,-11.719,-47.363,-71.289,-49.805,62.012
1738231437.196,-18.555,-45.410,-62.988,-30.273,-55.176
1738231437.200,-26.855,-49.805,-64.453,-13.672,-33.691
1738231437.204,-19.043,-51.758,-70.312,-5.859,88.867
1738231437.207,-7.324,-48.340,-72.266,-6.348,310.059
1738231437.211,-15.625,-45.410,-63.965,-14.160,378.418
1738231437.215,-18.555,-39.551,-45.898,-28.809,-201.172
1738231437.219,-16.113,-43.945,-58.594,-27.832,-296.387
1738231437.223,-13.672,-47.363,-72.266,-11.719,115.234
1738231437.211,-13.672,-41.016,-59.082,-25.879,-44.434
1738231437.215,-14.160,-42.480,-51.758,-28.809,-261.230
1738231437.219,-15.137,-40.039,-57.129,-13.184,-227.539
1738231437.223,-24.902,-37.598,-60.547,-6.348,-173.828
1738231437.227,-24.414,-44.434,-63.965,-17.090,-102.051
1738231437.231,-16.113,-45.898,-73.730,-34.668,-50.293
1738231437.235,-16.602,-43.945,-73.730,-9.277,21.973
1738231437.238,-20.020,-44.434,-64.453,-14.648,-79.102
1738231437.242,-16.602,-50.781,-68.359,-58.105,-177.734
1738231437.246,-17.578,-51.758,-73.730,-46.875,-127.930
1738231437.250,-13.672,-43.945,-73.730,-39.062,59.570
1738231437.254,-9.277,-44.434,-74.219,-46.387,530.762
1738231437.255,-12.207,-46.875,-56.152,-40.039,99.609
1738231437.259,-7.324,-44.434,-54.688,-29.297,-353.516
1738231437.263,-11.719,-45.410,-71.289,-21.973,-66.406
1738231437.267,-15.625,-49.316,-65.918,-5.859,49.316
1738231437.271,-15.137,-45.898,-55.176,-9.766,-140.625
1738231437.275,-9.766,-39.551,-56.152,-20.020,-151.367
1738231437.279,-9.766,-41.016,-73.242,-12.695,345.703
1738231437.282,-17.578,-42.480,-70.312,11.719,661.621
1738231437.286,-13.184,-43.457,-43.457,8.301,64.941
1738231437.290,-9.766,-40.527,-46.387,-31.738,-268.555
1738231437.294,-14.648,-40.527,-53.711,-53.711,-212.402
1738231437.298,-23.926,-43.945,-48.340,-36.621,-282.227
1738231437.303,-21.973,-42.480,-52.246,-2.930,-261.230
1738231437.307,-8.789,-40.527,-57.129,0.000,-64.941
1738231437.311,5.371,-37.109,-49.805,-25.879,13.184
1738231437.315,-0.977,-35.156,-47.852,-41.016,-218.750
1738231437.360,-2.930,-33.203,-50.293,-21.973,-198.730
1738231437.364,-8.301,-37.598,-61.523,-18.555,-66.406
1738231437.368,-13.184,-36.133,-57.129,-5.371,-104.980
1738231437.372,-11.719,-39.551,-56.641,-2.930,-50.781
1738231437.376,-0.977,-37.109,-62.988,-11.719,81.055
1738231437.380,-5.859,-40.527,-66.895,-20.020,274.902
1738231437.384,-17.578,-50.293,-66.895,-35.156,619.629
1738231437.387,-17.578,-46.387,-51.270,-26.367,44.922
1738231437.391,-23.926,-44.434,-51.270,14.160,-323.730
1738231437.395,-19.043,-49.805,-56.641,39.551,231.934
1738231437.399,-18.066,-47.363,-41.504,24.902,107.910
1738231437.403,-11.719,-41.016,-48.340,-50.293,-337.402
1738231437.422,-1.465,-37.598,-59.570,-82.520,-322.266
1738231437.426,-13.672,-37.109,-56.641,-42.480,-156.738
1738231437.430,-17.090,-34.668,-51.758,-20.996,-94.238
1738231437.434,-22.949,-31.250,-49.316,-43.457,-246.094
1738231437.438,-20.020,-33.203,-54.199,-60.059,-264.648
1738231437.442,-14.648,-34.668,-56.152,-50.781,-66.895
1738231437.446,-20.996,-31.738,-59.570,-25.879,-43.945
1738231437.449,-18.066,-31.250,-56.641,-0.488,-20.508
1738231437.453,-6.348,-34.668,-55.664,-21.973,28.320
1738231437.457,-16.602,-39.551,-68.359,-30.762,320.801
1738231437.461,-29.297,-37.598,-51.270,-8.301,-7.324
1738231437.465,-27.832,-38.086,-45.410,1.953,-311.523
1738231437.465,-39.062,-44.922,-62.988,-3.906,7.812
1738231437.469,-32.715,-45.898,-56.641,-50.293,-30.762
1738231437.473,-28.809,-46.875,-52.734,-63.477,-227.539
1738231437.477,-39.551,-45.410,-57.129,-31.738,-138.672
1738231437.481,-37.598,-41.504,-66.406,-25.879,-3.418
1738231437.485,-18.066,-39.062,-66.895,-43.457,164.062
1738231437.489,-17.090,-38.574,-56.641,-51.758,61.035
1738231437.492,-34.180,-35.645,-56.152,-63.477,-220.703
1738231437.496,-40.039,-35.645,-64.941,-63.477,98.633
1738231437.500,-44.922,-32.227,-52.734,-54.688,112.793
1738231437.504,-50.781,-31.250,-46.387,-50.781,-221.191
1738231437.508,-50.781,-30.762,-52.734,-62.988,-188.477
1738231437.571,-41.504,-28.809,-68.359,-57.617,229.980
1738231437.575,-38.574,-30.273,-62.500,-41.992,535.156
1738231437.579,-45.898,-32.715,-42.969,-50.293,57.129
1738231437.583,-42.969,-31.738,-52.246,-37.109,-202.637
1738231437.587,-37.598,-31.250,-52.246,-32.227,-94.727
1738231437.591,-40.039,-32.715,-48.828,-47.363,-114.258
1738231437.595,-44.434,-33.203,-50.781,-35.156,-185.059
1738231437.598,-42.480,-31.250,-49.805,-15.137,-183.594
1738231437.602,-38.574,-30.762,-48.828,-6.348,-22.949
1738231437.606,-29.297,-28.320,-50.293,-20.508,-88.867
1738231437.610,-25.391,-26.855,-54.688,-43.457,-318.359
1738231437.614,-32.227,-30.762,-60.547,-34.180,-63.477
1738231437.585,-32.227,-34.668,-53.223,-28.320,122.559
1738231437.589,-33.691,-30.273,-50.293,-18.555,-132.324
1738231437.593,-26.367,-23.926,-62.988,-31.250,-116.211
1738231437.597,-27.344,-33.203,-71.777,-53.223,120.117
1738231437.601,-33.203,-36.621,-62.500,-56.641,-44.922
1738231437.605,-24.902,-28.320,-63.477,-56.152,-271.484
1738231437.609,-28.809,-26.855,-70.801,-25.391,28.809
1738231437.612,-24.902,-26.855,-74.219,-23.926,223.633
1738231437.616,-9.766,-27.832,-69.824,-48.828,-117.188
1738231437.620,-15.137,-24.902,-71.777,-47.852,-402.832
1738231437.624,-31.738,-25.391,-73.242,-33.203,-273.926
1738231437.628,-45.898,-26.367,-71.777,-20.020,33.203
1738231437.591,-41.504,-26.855,-71.289,-25.391,-8.301
1738231437.595,-28.320,-31.250,-73.730,-38.574,-174.316
1738231437.599,-28.809,-30.273,-73.242,-39.551,-174.805
1738231437.603,-49.316,-33.691,-75.195,-21.973,266.602
1738231437.607,-51.758,-33.203,-60.547,9.766,293.945
1738231437.611,-34.180,-32.227,-60.547,-17.578,71.777
1738231437.615,-27.832,-35.156,-68.848,-55.176,41.504
1738231437.618,-37.598,-36.133,-62.988,-50.293,-35.645
1738231437.622,-36.133,-39.551,-61.035,-39.062,-220.703
1738231437.626,-30.762,-36.133,-66.895,-20.020,-291.992
1738231437.630,-22.949,-33.203,-70.312,-10.742,-67.871
1738231437.634,-12.695,-35.156,-62.988,-39.551,-15.137
1738231437.630,-19.043,-28.809,-58.105,-69.336,-295.410
1738231437.634,-20.508,-20.508,-60.059,-58.105,-375.488
1738231437.638,-21.973,-25.879,-75.195,-21.484,25.391
1738231437.642,-18.066,-31.250,-76.660,-4.395,723.633
1738231437.646,-10.254,-32.715,-59.082,-23.926,770.508
1738231437.650,-25.391,-35.645,-49.805,-46.875,124.023
1738231437.654,-27.832,-39.551,-58.105,-48.828,145.020
1738231437.657,-28.809,-41.504,-65.430,-25.879,606.445
1738231437.661,-39.551,-42.480,-59.082,-13.672,666.992
1738231437.665,-34.180,-40.527,-50.293,-31.738,272.949
1738231437.669,-31.250,-38.574,-59.570,-43.457,-56.152
1738231437.673,-28.809,-35.645,-61.523,-40.527,-329.590
1738231437.676,-33.203,-33.691,-62.988,-23.926,-433.594
1738231437.680,-36.621,-40.039,-65.918,-20.020,-201.172
1738231437.684,-26.367,-38.086,-63.477,-55.664,-164.551
1738231437.688,-20.996,-28.320,-63.965,-68.848,-335.938
1738231437.692,-22.461,-28.809,-64.941,-45.898,-421.387
1738231437.696,-31.250,-36.133,-69.824,-30.762,-78.613
1738231437.700,-29.297,-38.574,-70.801,-19.043,438.477
1738231437.703,-6.836,-37.109,-63.965,-45.410,189.453
1738231437.707,-3.418,-35.156,-57.617,-75.684,-264.160
1738231437.711,-12.695,-26.855,-62.988,-82.031,-318.359
1738231437.715,-22.461,-27.344,-68.359,-75.684,-222.656
1738231437.719,-37.598,-35.645,-57.617,-56.641,-147.461
1738231437.735,-34.668,-36.621,-58.594,-66.406,-206.543
1738231437.739,-31.738,-40.039,-74.219,-67.871,-78.125
1738231437.743,-30.762,-40.039,-64.453,-43.457,187.500
1738231437.747,-34.180,-40.039,-47.852,-49.316,-83.008
1738231437.751,-52.734,-47.363,-47.852,-43.945,-232.422
1738231437.755,-43.945,-47.363,-62.500,-42.969,259.277
1738231437.759,-31.738,-46.387,-61.035,-64.941,506.348
1738231437.762,-33.691,-46.387,-47.363,-77.148,-206.543
1738231437.766,-40.527,-50.293,-54.199,-55.176,-352.539
1738231437.770,-46.387,-45.898,-59.570,-20.020,274.414
1738231437.774,-42.480,-43.457,-44.434,-28.809,144.531
1738231437.778,-37.109,-41.992,-36.133,-47.363,-373.535
1738231437.812,-45.410,-38.574,-42.480,-40.527,-381.348
1738231437.816,-66.895,-41.016,-43.945,-21.973,-247.070
1738231437.820,-91.309,-46.875,-42.480,-15.625,-141.602
1738231437.824,-82.520,-51.758,-50.293,-18.555,-150.391
1738231437.828,-73.242,-52.734,-54.688,-27.832,-188.965
1738231437.832,-72.266,-50.781,-59.082,-65.918,-119.141
1738231437.836,-75.684,-46.875,-56.152,-63.477,-95.215
1738231437.839,-86.426,-38.574,-48.340,-18.066,-96.191
1738231437.843,-73.730,-40.527,-61.035,-17.090,16.602
1738231437.847,-61.523,-44.434,-65.430,-37.109,318.359
1738231437.851,-61.035,-42.969,-45.898,-43.945,-66.406
1738231437.855,-58.105,-44.922,-51.270,-30.762,-243.652
1738231437.825,-60.059,-41.504,-58.594,-11.230,122.559
1738231437.829,-64.453,-41.016,-48.340,-21.973,125.488
1738231437.833,-56.152,-47.363,-46.875,-47.852,-101.562
1738231437.837,-59.082,-45.410,-50.781,-41.504,-116.211
1738231437.841,-70.801,-40.527,-49.316,-36.621,-28.809
1738231437.845,-78.613,-39.062,-44.434,-25.391,194.824
1738231437.849,-64.453,-39.551,-40.527,-10.742,133.301
1738231437.852,-41.992,-39.062,-40.527,-38.574,-91.797
1738231437.856,-42.480,-41.016,-48.340,-48.340,-45.410
1738231437.860,-54.688,-37.109,-41.016,-19.043,-161.133
1738231437.864,-63.477,-33.691,-38.086,-6.836,-222.168
1738231437.868,-56.641,-40.039,-43.457,-28.320,-58.105
1738231437.873,-59.082,-40.527,-48.340,-53.711,16.602
1738231437.877,-64.941,-47.363,-56.641,-56.152,-124.023
1738231437.881,-71.289,-56.152,-55.176,-35.645,-159.180
1738231437.885,-79.590,-49.316,-49.805,-20.508,-84.473
1738231437.889,-69.824,-48.340,-61.035,-22.461,508.301
1738231437.893,-74.219,-54.199,-56.152,-41.504,866.699
1738231437.897,-90.820,-51.270,-30.273,-64.453,140.625
1738231437.900,-92.773,-52.734,-37.109,-59.082,-197.266
1738231437.904,-102.051,-55.176,-50.781,-19.531,354.004
1738231437.908,-111.816,-53.223,-39.551,14.648,182.129
1738231437.912,-101.074,-46.875,-45.898,-35.156,-213.867
1738231437.916,-78.125,-42.480,-58.105,-83.008,-218.262
1738231437.915,-76.172,-49.316,-48.828,-62.500,-262.207
1738231437.919,-85.449,-43.457,-42.969,-38.574,-243.164
1738231437.923,-80.566,-36.133,-48.340,-15.137,-77.637
1738231437.927,-76.660,-51.270,-51.758,-34.668,181.641
1738231437.931,-69.336,-41.992,-39.062,-66.406,62.012
1738231437.935,-68.848,-43.945,-37.598,-40.039,-157.715
1738231437.939,-85.938,-53.223,-54.688,2.441,-63.477
1738231437.942,-80.566,-43.457,-52.246,0.977,391.113
1738231437.946,-63.965,-40.039,-35.156,-40.039,687.012
1738231437.950,-72.266,-36.133,-32.715,-73.730,57.129
1738231437.954,-70.801,-39.551,-48.828,-101.562,-355.469
1738231437.958,-66.406,-43.945,-55.664,-94.238,-202.148
1738231437.992,-60.059,-39.551,-52.734,-50.781,-156.250
1738231437.996,-40.039,-46.387,-51.270,-39.062,-228.027
1738231438.000,-35.645,-52.734,-52.246,-50.293,-303.711
1738231438.004,-42.969,-45.410,-47.363,-37.109,-279.785
1738231438.008,-51.270,-44.434,-49.805,-29.297,-201.660
1738231438.012,-65.430,-50.781,-52.734,-38.086,-70.801
1738231438.016,-60.547,-57.617,-46.387,-46.875,55.664
1738231438.019,-52.246,-75.684,-40.527,-38.086,359.863
1738231438.023,-47.363,-70.312,-29.785,-41.992,10.742
1738231438.027,-29.785,-43.945,-33.691,-34.180,-344.238
1738231438.031,-3.906,-44.922,-40.039,9.277,-22.461
1738231438.035,6.348,-58.105,-24.902,6.836,292.969
1738231438.005,1.465,-54.688,-4.883,-28.809,-108.887
1738231438.009,9.277,-54.688,-0.977,-45.410,-388.672
1738231438.013,13.184,-58.594,-13.672,-17.090,-168.457
1738231438.017,20.508,-62.012,-3.906,15.137,108.398
1738231438.021,43.945,-66.406,15.625,-17.090,-33.691
1738231438.025,48.340,-69.336,31.738,-52.734,-39.062
1738231438.029,52.246,-65.430,66.406,-54.199,272.461
1738231438.032,63.965,-61.523,90.332,-38.574,-3.418
1738231438.036,91.797,-65.918,105.957,18.555,-180.176
1738231438.040,75.684,-78.125,122.070,2.930,84.961
1738231438.044,30.762,-81.055,130.371,-47.852,69.336
1738231438.048,25.879,-78.613,152.344,-41.992,-217.773
1738231438.067,16.602,-75.684,163.086,-34.668,-311.523
1738231438.071,-2.930,-80.566,152.832,-28.809,-172.363
1738231438.075,-7.812,-89.844,140.625,-54.688,469.727
1738231438.079,-8.789,-86.914,152.832,-88.867,592.773
1738231438.083,-18.066,-82.520,176.758,-85.449,-194.336
1738231438.087,-24.902,-81.055,170.898,-71.289,-147.461
1738231438.091,-39.062,-73.730,170.410,-50.781,369.629
1738231438.094,-54.199,-64.453,194.824,-62.500,64.453
1738231438.098,-29.785,-53.711,190.430,-78.125,-255.859
1738231438.102,-7.812,-46.387,166.504,-73.242,-213.379
1738231438.106,-18.066,-36.133,170.410,-69.336,-132.812
1738231438.110,-21.973,-29.297,196.289,-30.273,-129.395
1738231438.141,1.953,-23.438,211.426,-4.395,-38.574
1738231438.145,23.438,-13.672,203.613,-26.367,40.527
1738231438.149,32.715,-4.395,202.637,-31.250,54.688
1738231438.153,38.574,10.742,207.031,-12.207,-79.590
1738231438.157,31.250,16.602,201.172,21.973,-133.301
1738231438.161,37.598,21.484,189.941,45.410,204.102
1738231438.165,61.035,26.855,187.500,27.344,167.969
1738231438.168,55.176,26.367,184.570,10.254,-165.527
1738231438.172,39.062,23.438,159.668,-14.160,-273.926
1738231438.176,26.367,15.137,121.582,-15.137,241.699
1738231438.180,18.555,5.371,110.352,-30.762,744.141
1738231438.184,20.508,0.488,115.234,-58.105,140.625
1738231438.148,19.531,0.000,93.750,-48.340,-313.965
1738231438.152,11.230,-4.395,75.684,-60.059,-243.164
1738231438.156,4.395,-7.812,61.523,-87.402,-75.195
1738231438.160,5.371,-12.695,49.316,-95.215,-55.664
1738231438.164,9.766,-21.973,37.598,-88.867,-183.105
1738231438.168,4.883,-26.855,29.785,-122.559,-83.984
1738231438.172,-1.465,-27.832,26.367,-169.434,-101.074
1738231438.175,-14.648,-32.227,18.555,-146.973,-246.094
1738231438.179,-15.137,-18.066,14.648,-72.266,-87.402
1738231438.183,-6.348,-19.531,16.113,-77.148,5.859
1738231438.187,-13.672,-27.344,12.207,-85.938,-225.098
1738231438.191,-17.090,-34.668,1.953,-46.875,-301.270
1738231438.200,-24.902,-35.645,-4.395,4.883,-36.621
1738231438.204,-23.438,-19.531,3.418,16.113,147.461
1738231438.208,-21.484,-17.090,-0.977,-24.414,14.160
1738231438.212,1.953,-12.207,-2.930,-43.945,-41.992
1738231438.216,48.828,-7.812,-1.465,-58.105,133.789
1738231438.220,28.320,-4.883,1.953,-45.410,707.031
1738231438.224,1.953,-0.977,4.395,-13.672,930.664
1738231438.227,7.324,4.395,-4.883,-52.246,385.254
1738231438.231,13.184,20.020,-14.648,-94.238,-54.199
1738231438.235,12.207,23.926,-18.555,-49.316,-249.023
1738231438.239,5.371,19.531,-24.414,33.203,-357.422
1738231438.243,13.672,21.973,-29.297,35.156,-114.746
1738231438.246,25.879,26.367,-29.297,-14.160,162.109
1738231438.250,38.574,36.133,-14.160,9.277,-131.836
1738231438.254,38.574,39.062,-4.883,63.477,-398.438
1738231438.258,45.898,35.156,-7.812,82.520,-183.594
1738231438.262,48.828,32.227,-11.719,84.961,216.797
1738231438.266,36.621,26.855,-3.906,73.730,66.895
1738231438.270,41.992,18.066,5.859,74.707,-129.395
1738231438.273,48.340,22.949,19.531,117.188,-59.082
1738231438.277,40.527,33.691,36.621,124.512,-64.453
1738231438.281,35.645,25.879,39.551,132.812,-141.113
1738231438.285,24.902,2.441,29.785,132.812,-255.859
1738231438.289,18.555,-0.977,17.578,109.863,-180.176
1738231438.290,14.160,6.348,5.859,107.910,209.473
1738231438.294,6.836,13.672,17.578,96.680,-158.691
1738231438.298,-1.953,14.648,4.395,85.938,-289.062
1738231438.302,-19.043,10.742,-14.160,77.637,174.805
1738231438.306,-15.137,19.043,-2.930,62.988,8.789
1738231438.310,-7.812,14.160,-9.766,45.410,-341.309
1738231438.314,-10.742,6.348,-21.484,49.316,-312.500
1738231438.317,-14.648,2.441,-31.250,49.316,50.293
1738231438.321,6.348,3.418,-22.461,16.113,-9.277
1738231438.325,24.902,10.254,-12.207,13.184,-308.594
1738231438.329,-0.488,6.348,-19.043,16.602,-301.270
1738231438.333,-0.488,-8.301,-23.926,44.922,98.145
1738231438.367,0.488,-4.395,-0.488,64.941,322.754
1738231438.371,-5.859,0.488,12.207,-7.812,-125.000
1738231438.375,20.996,-3.906,2.930,-53.711,-278.320
1738231438.379,22.949,-7.812,9.277,-29.297,-251.465
1738231438.399,-10.254,-19.531,2.441,-11.230,4.883
1738231438.403,-17.578,-23.926,-3.418,-20.020,-337.402
1738231438.407,-36.133,-32.227,-18.066,-22.949,-124.023
1738231438.411,-59.082,-38.574,-19.043,-0.977,229.980
1738231438.415,-52.734,-36.621,-15.137,-0.488,-32.227
1738231438.419,-25.879,-37.109,-32.227,-35.156,-167.480
1738231438.423,-21.484,-43.945,-42.969,-32.715,132.324
1738231438.426,-39.062,-43.945,-34.668,-23.438,-23.926
1738231438.430,-62.500,-39.062,-35.156,-29.785,-284.668
1738231438.434,-70.801,-39.551,-48.340,-27.832,-92.773
1738231438.438,-54.688,-41.016,-55.664,-32.715,83.496
1738231438.442,-41.992,-37.598,-53.711,-49.316,-140.137
1738231438.456,-41.992,-38.574,-53.711,-57.129,-353.516
1738231438.460,-55.176,-41.992,-72.754,-57.129,-233.887
1738231438.464,-57.129,-46.387,-92.285,-43.457,455.566
1738231438.468,-45.898,-48.828,-76.660,-54.688,317.383
1738231438.472,-50.293,-51.758,-76.660,-67.383,-305.664
1738231438.476,-56.641,-63.965,-90.332,-63.477,-127.930
1738231438.480,-59.082,-64.453,-91.309,-53.711,104.980
1738231438.483,-74.707,-60.059,-89.844,-32.227,-11.719
1738231438.487,-65.918,-59.082,-82.520,-34.180,-254.883
1738231438.491,-48.340,-55.176,-86.914,-52.734,-197.266
1738231438.495,-63.965,-55.664,-98.633,-57.617,324.219
1738231438.499,-74.707,-51.270,-84.961,-83.984,141.602
1738231438.486,-67.383,-51.758,-82.031,-63.965,-202.637
1738231438.490,-58.105,-62.988,-92.773,-48.340,31.250
1738231438.494,-47.363,-64.453,-91.309,-60.059,146.973
1738231438.498,-27.832,-61.523,-83.984,-50.293,-122.070
1738231438.502,-16.113,-64.453,-85.449,-41.504,-278.809
1738231438.506,-35.645,-68.359,-98.145,-28.809,207.031
1738231438.510,-43.457,-59.082,-86.914,-23.926,383.301
1738231438.513,-33.691,-52.734,-68.848,-46.875,-120.605
1738231438.517,-43.457,-68.848,-68.359,-79.590,-313.477
1738231438.521,-64.453,-74.219,-77.637,-77.148,-92.773
1738231438.525,-75.684,-67.383,-76.172,-60.059,-62.500
1738231438.529,-64.453,-66.895,-65.430,-41.992,-192.383
1738231438.532,-50.781,-64.941,-67.871,-19.043,-252.441
1738231438.536,-40.527,-66.406,-83.984,-26.367,183.594
1738231438.540,-44.434,-65.918,-73.730,-56.152,237.793
1738231438.544,-56.152,-67.383,-64.453,-60.059,-152.832
1738231438.548,-41.016,-71.777,-80.078,-58.105,-92.285
1738231438.552,-22.949,-71.777,-81.543,-72.266,-54.199
1738231438.556,-21.484,-69.336,-75.195,-51.758,-100.586
1738231438.559,-38.086,-67.383,-75.684,-30.762,-135.742
1738231438.563,-61.523,-71.777,-81.055,-48.828,-16.602
1738231438.567,-62.012,-78.125,-79.102,-44.922,471.680
1738231438.571,-53.223,-66.895,-52.246,-30.762,175.293
1738231438.575,-39.062,-56.641,-47.363,-34.180,-320.801
1738231438.575,-27.344,-65.430,-55.664,-30.762,-191.406
1738231438.579,-41.016,-69.824,-51.270,-40.527,-116.211
1738231438.583,-37.598,-64.453,-51.758,-52.246,-77.637
1738231438.587,-33.203,-58.594,-51.758,-39.551,13.672
1738231438.591,-36.621,-58.105,-53.223,2.930,44.434
1738231438.595,-42.480,-58.594,-51.270,-19.531,-22.949
1738231438.599,-47.852,-53.223,-50.781,-30.762,0.977
1738231438.602,-42.480,-54.688,-49.805,-5.371,-27.832
1738231438.606,-34.668,-61.523,-56.152,-42.480,193.848
1738231438.610,-28.320,-47.363,-51.270,-48.828,499.023
1738231438.614,-35.645,-44.434,-32.715,-34.668,10.254
1738231438.618,-43.457,-45.898,-39.062,-9.277,-191.895
1738231438.620,-36.133,-37.598,-41.016,13.184,135.254
1738231438.624,-22.949,-39.551,-30.273,-1.465,-28.809
1738231438.628,-16.113,-34.180,-31.738,-16.113,-293.945
1738231438.632,-18.555,-30.762,-29.785,-3.906,-314.941
1738231438.636,-12.207,-31.738,-26.855,-4.883,-150.391
1738231438.640,-10.254,-26.367,-23.438,-1.953,74.219
1738231438.644,-11.719,-24.902,-20.508,4.395,-40.527
1738231438.647,-12.207,-24.902,-25.879,0.488,-103.516
1738231438.651,-21.973,-23.438,-30.273,11.719,238.770
1738231438.655,-33.203,-21.484,-14.160,5.371,-16.113
1738231438.659,-23.926,-17.090,-13.184,-1.465,-221.191
1738231438.663,1.465,-17.090,-15.137,-3.906,-117.676
1738231438.665,0.000,-17.090,-14.160,-13.184,-92.773
1738231438.669,-16.602,-18.066,-15.625,-6.836,-184.570
1738231438.673,-10.254,-18.555,-21.973,0.488,-251.953
1738231438.677,-19.043,-24.902,-39.062,18.066,312.988
1738231438.681,-34.180,-31.738,-33.691,20.020,549.805
1738231438.685,-17.090,-27.832,-22.949,-12.695,42.969
1738231438.689,-11.719,-24.414,-31.738,-17.578,-53.711
1738231438.692,-28.320,-20.996,-44.922,-21.484,240.234
1738231438.696,-30.273,-22.949,-36.133,-28.320,275.879
1738231438.700,-19.531,-23.926,-20.020,-21.973,-145.996
1738231438.704,-2.930,-19.043,-27.832,-8.301,-286.621
1738231438.708,-1.465,-17.090,-38.086,-9.766,-232.422
1738231438.711,-23.926,-17.578,-38.086,-32.715,-218.262
1738231438.715,-37.109,-27.832,-31.250,-16.113,-145.996
1738231438.719,-22.461,-34.668,-34.668,-18.555,-6.348
1738231438.723,-21.484,-42.480,-37.109,-36.621,87.402
1738231438.727,-20.020,-48.828,-35.156,-16.602,-181.641
1738231438.731,-23.926,-39.062,-46.875,-17.090,-198.730
1738231438.735,-40.527,-45.410,-60.547,-26.855,175.781
1738231438.738,-34.180,-52.246,-60.547,-11.230,519.043
1738231438.742,-41.504,-45.898,-41.992,6.348,86.426
1738231438.746,-53.223,-52.734,-47.363,-24.414,-352.051
1738231438.750,-45.898,-54.199,-56.641,-73.730,-247.070
1738231438.754,-41.992,-48.828,-49.805,-69.824,-91.309
1738231438.784,-30.273,-46.387,-55.176,-43.457,-125.488
1738231438.788,-27.832,-47.852,-61.523,-41.504,-273.926
1738231438.792,-29.785,-52.734,-67.383,-32.227,-226.562
1738231438.796,-37.109,-53.711,-66.406,-33.203,-140.137
1738231438.800,-49.805,-54.688,-53.223,-40.527,-90.820
1738231438.804,-39.551,-52.246,-52.734,-31.738,-52.734
1738231438.808,-31.738,-53.223,-62.500,-29.785,294.922
1738231438.811,-44.922,-62.012,-55.176,-38.574,470.703
1738231438.815,-46.875,-60.059,-47.363,-50.781,-121.094
1738231438.819,-55.664,-57.617,-57.617,-49.805,-210.449
1738231438.823,-55.176,-63.477,-68.359,-25.391,345.703
1738231438.827,-41.992,-66.406,-55.664,-20.996,286.133
1738231438.801,-48.828,-65.430,-47.363,-41.992,-258.789
1738231438.805,-48.828,-63.477,-57.129,-46.387,-241.211
1738231438.809,-53.711,-60.547,-64.453,-22.461,-66.406
1738231438.813,-34.668,-54.688,-63.477,-24.414,-123.047
1738231438.817,-13.184,-55.176,-57.617,-54.688,-215.332
1738231438.821,-39.062,-67.383,-53.223,-56.152,-136.719
1738231438.825,-66.895,-67.871,-46.875,-51.270,-120.605
1738231438.828,-81.055,-65.430,-41.992,-45.410,-70.801
1738231438.832,-95.215,-77.637,-36.621,-48.828,-7.812
1738231438.836,-88.867,-84.473,-28.320,-72.754,-73.242
1738231438.840,-73.242,-82.031,-18.555,-80.078,-98.633
1738231438.844,-90.820,-78.613,-10.254,-60.547,-220.703
1738231438.859,-125.488,-89.844,-18.066,-76.172,-241.699
1738231438.863,-130.371,-104.980,-20.508,-84.961,83.008
1738231438.867,-111.816,-102.051,-18.066,-85.449,572.754
1738231438.871,-101.074,-97.168,-7.812,-83.984,202.148
1738231438.875,-132.324,-102.539,-1.465,-92.285,-364.746
1738231438.879,-152.344,-108.398,-18.066,-115.234,212.402
1738231438.883,-147.461,-105.469,-15.137,-116.211,708.496
1738231438.886,-144.531,-101.074,8.789,-134.766,-6.836
1738231438.890,-127.441,-95.703,4.395,-116.699,-328.613
1738231438.894,-126.465,-97.656,-2.441,-102.539,-6.836
1738231438.898,-151.855,-105.469,-8.789,-98.145,38.574
1738231438.902,-149.902,-106.445,-10.742,-90.332,-139.160
1738231438.920,-126.465,-105.469,-22.461,-92.285,-167.480
1738231438.924,-114.746,-97.656,-26.367,-82.520,-25.879
1738231438.928,-91.309,-88.379,-7.324,-57.617,-179.688
1738231438.932,-92.285,-89.844,-20.508,-37.598,-263.184
1738231438.936,-93.262,-85.449,-34.180,-65.918,-51.758
1738231438.940,-86.426,-81.055,-26.855,-91.797,91.797
1738231438.944,-90.820,-85.938,-30.273,-85.938,-38.574
1738231438.947,-85.449,-83.984,-34.668,-78.613,-289.062
1738231438.951,-89.355,-82.520,-41.016,-60.059,-131.836
1738231438.955,-85.938,-83.008,-49.316,-35.645,457.520
1738231438.959,-70.312,-77.148,-29.785,-29.297,109.863
1738231438.963,-70.312,-72.266,-32.227,-47.363,-315.430
1738231438.951,-57.129,-75.195,-44.434,-60.059,-146.484
1738231438.955,-60.059,-74.707,-44.434,-56.641,-71.777
1738231438.959,-72.266,-76.660,-45.898,-59.570,-50.293
1738231438.963,-48.340,-73.730,-40.527,-53.711,58.594
1738231438.967,-33.691,-60.547,-45.898,-43.457,154.785
1738231438.971,-40.039,-59.570,-48.828,-48.340,150.879
1738231438.975,-47.363,-61.035,-45.898,-66.406,-123.047
1738231438.978,-63.477,-61.523,-61.035,-60.059,-90.820
1738231438.982,-41.504,-64.453,-62.012,-48.340,104.980
1738231438.986,-34.180,-60.547,-50.781,-44.922,-76.172
1738231438.990,-48.340,-59.570,-46.875,-34.668,-297.852
1738231438.994,-50.781,-59.082,-61.035,-46.387,-209.961
1738231438.996,-50.781,-62.500,-79.102,-42.480,354.492
1738231439.000,-48.340,-67.871,-52.734,-11.719,280.273
1738231439.004,-45.898,-71.777,-46.875,-22.461,-189.941
1738231439.008,-46.875,-72.266,-62.012,-46.387,-81.543
1738231439.012,-43.457,-66.895,-56.152,-44.922,-12.695
1738231439.016,-57.617,-66.895,-61.035,-28.320,99.121
1738231439.020,-67.871,-67.383,-64.453,-43.945,93.750
1738231439.023,-44.434,-69.336,-59.570,-76.660,-41.504
1738231439.027,-39.062,-67.383,-73.242,-77.637,338.867
1738231439.031,-57.617,-63.477,-62.500,-60.059,117.188
1738231439.035,-72.754,-62.012,-53.711,-56.152,-163.574
1738231439.039,-47.852,-60.059,-65.430,-48.828,-42.969
1738231439.040,-36.133,-65.430,-63.477,-42.969,-148.926
1738231439.044,-54.688,-68.359,-52.734,-36.621,-226.074
1738231439.048,-64.453,-56.641,-57.129,-52.734,-284.668
1738231439.052,-57.617,-57.129,-72.754,-45.898,64.453
1738231439.056,-52.734,-59.082,-64.453,-29.785,165.527
1738231439.060,-60.059,-61.035,-58.594,-66.406,-130.371
1738231439.064,-66.406,-66.895,-60.059,-55.664,-159.668
1738231439.067,-56.641,-65.918,-74.219,-39.551,245.605
1738231439.071,-40.527,-57.129,-74.219,-63.477,396.973
1738231439.075,-35.156,-52.734,-57.129,-48.828,-90.820
1738231439.079,-16.113,-60.059,-64.941,-30.273,-231.445
1738231439.083,-16.602,-53.711,-64.941,-52.734,-122.070
1738231439.086,-20.020,-44.922,-62.988,-40.039,-223.633
1738231439.090,-29.785,-51.270,-70.312,-17.578,-240.234
1738231439.094,-32.227,-50.781,-79.102,-40.527,-42.969
1738231439.098,4.395,-41.504,-81.055,-54.688,274.902
1738231439.102,2.930,-51.758,-62.988,-43.457,12.695
1738231439.106,-29.297,-59.082,-62.988,-35.156,-182.617
1738231439.110,-47.852,-54.199,-76.660,-50.293,62.012
1738231439.113,-61.523,-56.641,-83.008,-49.316,480.469
1738231439.117,-42.480,-60.547,-68.848,-26.855,189.941
1738231439.121,-14.648,-54.199,-62.012,-11.230,-396.484
1738231439.125,-11.719,-50.781,-67.871,-4.395,-268.066
1738231439.129,-36.133,-54.688,-68.359,-41.504,-62.012
1738231439.130,-31.738,-55.176,-66.406,-42.480,-120.117
1738231439.134,0.000,-49.316,-64.941,-25.879,-216.797
1738231439.138,-4.395,-45.410,-75.195,-47.852,-105.469
1738231439.142,-26.367,-46.387,-78.125,-56.152,-39.062
1738231439.146,-50.293,-47.363,-69.824,-41.016,-128.418
1738231439.150,-42.969,-45.410,-73.730,-28.809,-38.086
1738231439.154,-18.555,-44.434,-81.055,-15.625,330.078
1738231439.157,-15.625,-41.992,-69.336,-10.742,571.289
1738231439.161,-28.320,-41.504,-49.805,1.465,-76.660
1738231439.165,-34.668,-43.457,-63.965,-16.113,-286.133
1738231439.169,-49.805,-51.758,-73.730,-31.250,105.469
1738231439.173,-37.598,-53.711,-61.035,-18.066,-55.176
1738231439.176,0.977,-44.434,-54.199,-27.344,-335.938
1738231439.180,3.906,-41.992,-65.430,-40.527,-298.340
1738231439.184,-21.484,-48.340,-70.801,-31.250,-4.883
1738231439.188,-18.555,-50.293,-58.594,17.578,5.371
1738231439.192,-5.859,-42.969,-55.176,19.531,-171.875
1738231439.196,-22.461,-34.668,-63.477,-38.574,44.922
1738231439.200,-38.086,-32.227,-66.406,-69.824,487.793
1738231439.203,-62.500,-36.133,-49.805,-62.988,143.555
1738231439.207,-77.148,-39.062,-49.805,-47.852,-136.719
1738231439.211,-66.406,-41.016,-53.223,-60.059,-51.758
1738231439.215,-76.660,-41.992,-44.922,-79.102,-135.742
1738231439.219,-66.406,-42.969,-44.922,-72.266,-295.898
1738231439.235,-55.664,-45.410,-51.270,-54.688,-280.762
1738231439.239,-55.176,-43.945,-58.105,-43.945,181.641
1738231439.243,-43.945,-43.945,-50.781,-56.641,214.355
1738231439.247,-45.898,-47.852,-41.992,-72.266,-126.465
1738231439.251,-43.945,-40.039,-41.504,-54.199,-291.992
1738231439.255,-45.410,-37.598,-54.688,-22.461,148.438
1738231439.259,-54.199,-42.969,-56.641,-28.320,632.324
1738231439.262,-41.504,-41.504,-41.016,-30.273,192.383
1738231439.266,-33.203,-39.062,-44.922,-1.465,-173.340
1738231439.270,-38.086,-46.387,-55.176,-31.738,40.527
1738231439.274,-49.316,-46.875,-43.457,-65.430,-33.691
1738231439.278,-57.129,-43.457,-41.504,-38.574,-210.938
1738231439.280,-55.176,-39.062,-46.875,-27.832,-80.566
1738231439.284,-36.621,-28.809,-41.016,-45.410,60.547
1738231439.288,-28.320,-29.297,-23.438,-47.852,-148.926
1738231439.292,-41.992,-33.691,-32.715,-25.879,-305.664
1738231439.296,-57.617,-33.203,-42.969,0.977,-15.625
1738231439.300,-54.688,-36.621,-30.273,-22.949,430.664
1738231439.304,-56.641,-40.527,-35.645,-79.590,168.457
1738231439.307,-61.035,-30.273,-12.695,-73.242,-349.121
1738231439.311,-81.543,-32.227,-18.066,-74.219,-212.891
1738231439.315,-111.328,-22.949,-38.086,-83.008,341.797
1738231439.319,-124.023,-15.625,14.648,-81.543,90.820
1738231439.323,-141.113,-17.578,17.578,-111.328,-257.812
1738231439.325,-139.160,-9.277,-9.766,-151.855,-195.312
1738231439.329,-146.484,20.020,12.207,-188.477,-250.977
1738231439.333,-206.055,45.898,64.453,-210.938,-187.500
1738231439.337,-259.766,41.016,94.727,-263.672,-13.672
1738231439.341,-255.859,43.945,113.770,-282.227,67.871
1738231439.345,-242.188,50.781,294.434,-264.648,17.090
1738231439.349,-264.160,53.711,525.391,-278.320,-164.062
1738231439.352,-285.156,55.664,642.578,-276.367,-68.848
1738231439.356,-278.320,70.312,775.391,-272.461,372.070
1738231439.360,-281.738,89.844,923.828,-298.340,482.422
1738231439.364,-274.414,105.469,969.727,-302.734,-187.988
1738231439.368,-252.441,101.562,957.520,-282.715,-359.863
1738231439.371,-243.164,108.887,964.844,-248.535,-113.770
1738231439.375,-254.883,109.863,969.238,-226.562,-97.656
1738231439.379,-250.000,106.934,968.750,-236.816,-151.855
1738231439.383,-221.680,121.094,969.238,-254.883,-238.281
1738231439.415,-211.914,143.066,969.238,-227.539,-94.727
1738231439.419,-209.473,119.141,969.238,-245.117,-290.039
1738231439.423,-215.332,121.582,969.238,-227.051,-311.523
1738231439.427,-211.914,125.000,969.238,-238.770,-72.266
1738231439.431,-191.406,121.582,969.238,-219.238,32.715
1738231439.435,-208.008,119.141,969.238,-213.379,-50.781
1738231439.439,-233.398,107.422,969.238,-265.625,-169.922
1738231439.442,-209.961,91.797,969.238,-268.555,116.699
1738231439.446,-232.422,85.938,969.238,-283.691,554.199
1738231439.450,-227.051,101.562,969.238,-248.535,117.676
1738231439.454,-195.312,106.445,969.238,-198.730,-110.840
1738231439.458,-209.961,95.703,969.238,-239.746,-6.836
1738231439.475,-215.332,88.379,969.238,-213.379,-221.680
1738231439.479,-222.168,84.961,969.238,-187.500,-197.266
1738231439.483,-252.441,76.660,968.750,-249.023,-52.246
1738231439.487,-235.840,68.848,969.238,-271.973,-35.645
1738231439.491,-196.289,58.594,969.238,-227.539,-180.176
1738231439.495,-176.758,62.012,969.238,-201.172,-172.363
1738231439.499,-199.707,54.199,969.238,-236.816,-10.742
1738231439.502,-202.148,47.852,969.238,-212.891,414.062
1738231439.506,-186.523,40.039,969.238,-205.566,142.090
1738231439.510,-177.246,29.297,969.238,-221.680,-278.809
1738231439.514,-149.902,22.461,969.238,-190.430,-172.363
1738231439.518,-134.766,15.137,969.238,-154.785,-105.469
1738231439.506,-141.602,3.906,969.238,-121.582,-101.562
1738231439.510,-111.328,-10.742,969.238,-87.891,-71.289
1738231439.514,-48.340,-18.066,969.238,-79.102,72.266
1738231439.518,-35.156,-31.738,969.238,-65.918,302.246
1738231439.522,-23.438,-43.945,969.238,-26.367,-72.754
1738231439.526,3.418,-58.105,968.262,-2.441,-17.090
1738231439.530,18.555,-78.613,963.379,4.395,407.715
1738231439.533,52.246,-86.914,960.938,35.156,103.027
1738231439.537,80.078,-94.238,953.125,59.082,-310.547
1738231439.541,91.309,-110.352,939.453,78.613,-310.547
1738231439.545,107.422,-120.605,915.039,122.559,246.582
1738231439.549,113.281,-135.742,791.992,127.930,402.344
1738231439.552,121.582,-149.414,505.371,108.887,-178.711
1738231439.556,151.855,-156.250,208.984,125.977,-292.969
1738231439.560,158.203,-170.410,-6.836,137.207,-214.844
1738231439.564,156.738,-178.711,-189.941,172.852,-73.730
1738231439.568,173.828,-179.688,-370.605,172.363,55.176
1738231439.572,211.426,-174.805,-519.043,163.086,12.695
1738231439.576,224.609,-181.641,-632.324,195.312,410.156
1738231439.579,217.773,-191.406,-627.930,223.633,195.801
1738231439.583,233.398,-188.965,-602.051,259.277,-179.199
1738231439.587,232.910,-192.871,-646.973,241.699,-29.297
1738231439.591,245.605,-198.242,-646.484,228.027,-98.633
1738231439.595,252.930,-193.359,-636.230,243.652,-272.949
1738231439.610,237.305,-188.965,-688.477,266.602,-268.555
1738231439.614,226.562,-188.965,-732.910,282.715,-57.617
1738231439.618,227.539,-186.035,-742.676,255.859,79.102
1738231439.622,241.211,-183.105,-761.719,240.234,70.312
1738231439.626,232.422,-180.664,-763.184,229.004,-145.020
1738231439.630,222.168,-179.199,-816.895,230.957,99.609
1738231439.634,211.914,-177.246,-901.855,262.695,749.512
1738231439.637,195.801,-168.457,-896.484,255.859,482.910
1738231439.641,197.266,-160.156,-886.719,212.402,-129.883
1738231439.645,201.660,-152.344,-907.715,190.918,-87.402
1738231439.649,184.570,-145.508,-916.016,169.922,-234.863
1738231439.653,160.645,-145.508,-932.129,185.059,-290.527
1738231439.669,156.250,-145.996,-941.406,192.383,-64.453
1738231439.673,156.738,-135.254,-935.547,143.555,-97.168
1738231439.677,149.902,-126.953,-945.801,128.418,-266.113
1738231439.681,148.926,-129.395,-958.008,133.789,-312.500
1738231439.685,131.348,-129.395,-959.473,127.930,-142.578
1738231439.689,113.770,-124.512,-951.172,124.512,194.824
1738231439.693,107.422,-122.559,-930.664,103.516,109.375
1738231439.696,100.098,-119.141,-913.574,94.238,-202.148
1738231439.700,91.309,-115.723,-928.711,89.355,-188.965
1738231439.704,74.219,-118.164,-957.520,87.891,409.668
1738231439.708,63.477,-112.793,-945.801,88.867,313.965
1738231439.712,77.637,-104.492,-950.195,64.453,-166.992
1738231439.700,83.008,-101.562,-952.637,50.293,-203.613
1738231439.704,63.965,-99.121,-933.594,50.293,-289.551
1738231439.708,44.922,-99.609,-930.176,69.336,-248.535
1738231439.712,36.621,-102.051,-935.059,80.078,-24.902
1738231439.716,37.598,-99.121,-934.570,52.246,131.348
1738231439.720,32.715,-92.773,-936.523,20.020,114.746
1738231439.724,32.227,-85.449,-928.711,8.301,-145.508
1738231439.727,41.992,-81.543,-934.082,18.066,-178.223
1738231439.731,33.691,-83.496,-954.590,23.926,121.582
1738231439.735,35.645,-84.473,-945.312,15.137,0.977
1738231439.739,34.180,-88.379,-946.777,1.465,-258.789
1738231439.743,22.949,-85.449,-955.566,-11.719,-201.172
1738231439.759,21.973,-77.148,-951.172,11.719,256.348
1738231439.763,11.719,-78.613,-916.016,22.461,467.285
1738231439.767,22.949,-75.195,-887.695,-1.953,-28.320
1738231439.771,29.297,-68.359,-888.184,3.418,-206.543
1738231439.775,17.578,-66.895,-878.418,12.207,-217.773
1738231439.779,21.484,-63.965,-871.094,1.465,-103.516
1738231439.783,5.859,-59.082,-853.027,13.672,64.941
1738231439.786,11.230,-58.105,-825.195,15.137,71.289
1738231439.790,32.227,-59.570,-794.434,12.695,349.121
1738231439.794,12.695,-56.641,-753.418,-5.371,-27.832
1738231439.798,-4.395,-59.082,-736.816,-18.555,-354.004
1738231439.802,-10.254,-60.059,-725.098,5.859,-114.258
1738231439.805,-7.812,-55.176,-697.266,12.207,-39.551
1738231439.809,11.230,-53.711,-683.105,14.160,-169.922
1738231439.813,20.996,-60.059,-673.828,11.719,-247.559
1738231439.817,11.719,-64.941,-648.926,-1.953,65.918
1738231439.821,-8.789,-64.941,-619.629,9.766,333.008
1738231439.825,-18.555,-62.500,-610.352,2.441,113.770
1738231439.829,-5.371,-58.105,-609.863,-17.090,6.348
1738231439.832,9.766,-53.223,-598.145,-10.742,-12.207
1738231439.836,4.395,-48.340,-582.031,-6.836,-205.566
1738231439.840,-10.254,-50.293,-573.242,8.301,-249.023
1738231439.844,-9.277,-55.664,-565.918,17.578,-143.066
1738231439.848,-2.930,-57.617,-561.035,7.324,200.684
1738231439.836,3.418,-49.316,-522.461,-12.207,109.863
1738231439.840,0.000,-39.551,-498.047,-14.160,-276.855
1738231439.844,-16.602,-47.363,-504.395,4.395,-126.465
1738231439.848,-17.578,-53.711,-492.188,-6.348,30.762
1738231439.852,-6.348,-49.316,-482.422,-19.043,-64.453
1738231439.856,-4.395,-41.016,-461.426,-17.578,-177.734
1738231439.860,-8.301,-33.691,-443.848,-8.789,-51.270
1738231439.863,-14.160,-38.574,-437.500,7.324,295.410
1738231439.867,-8.789,-38.086,-404.785,3.418,91.797
1738231439.871,2.441,-30.273,-383.301,-19.531,-266.113
1738231439.875,-2.930,-28.320,-413.086,-27.344,-177.734
1738231439.879,-5.859,-33.691,-432.617,-28.809,185.547
1738231439.880,-14.648,-31.738,-395.996,-26.855,-39.551
1738231439.884,-16.113,-32.227,-370.605,-11.230,-153.809
1738231439.888,1.953,-38.574,-370.605,-13.184,0.488
1738231439.892,-3.418,-42.480,-358.398,-28.809,-79.102
1738231439.896,-20.996,-41.504,-332.031,-26.367,-261.230
1738231439.900,-30.273,-44.434,-338.867,-6.836,-136.719
1738231439.904,-32.715,-50.293,-358.398,8.301,372.070
1738231439.907,-23.438,-43.457,-332.520,-8.789,788.574
1738231439.911,-10.742,-34.180,-273.438,-30.762,171.387
1738231439.915,-12.695,-39.062,-252.441,-36.621,-343.750
1738231439.919,-30.762,-41.016,-248.047,-24.414,-177.734
1738231439.923,-34.668,-43.945,-234.863,-1.465,-143.555
1738231439.926,-20.996,-46.387,-246.094,-13.184,-220.703
1738231439.930,-20.020,-38.574,-253.418,-29.297,-223.633
