timestamps,TP9,AF7,AF8,TP10,Right AUX
1738232365.131,-10.742,-9.766,-36.133,-8.301,252.930
1738232365.135,-51.758,-4.395,-28.809,-34.668,111.328
1738232365.139,-63.965,-12.207,-25.879,-39.062,-232.910
1738232365.143,-41.504,-15.625,-33.203,-0.488,-139.160
1738232365.147,-49.805,-19.043,-30.762,7.812,-89.844
1738232365.151,-65.430,-22.461,-27.344,-49.805,-102.539
1738232365.155,-58.105,-11.719,-30.762,-81.543,-157.715
1738232365.158,-50.293,-7.324,-27.344,-62.012,-16.602
1738232365.162,-38.086,-15.137,-27.832,-58.594,55.176
1738232365.166,-36.621,-13.184,-30.762,-72.266,-128.906
1738232365.170,-34.668,-9.766,-25.879,-62.500,-142.090
1738232365.174,-33.203,-14.160,-27.832,-53.223,36.133
1738232365.174,-31.738,-13.184,-26.855,-41.016,535.645
1738232365.178,-30.273,-14.160,-27.344,-21.973,665.039
1738232365.182,-32.227,-18.066,-26.367,-31.738,111.816
1738232365.186,-35.645,-20.996,-29.297,-79.102,-198.242
1738232365.190,-41.504,-15.625,-28.320,-60.547,-249.512
1738232365.194,-41.016,-7.812,-29.297,-20.020,-168.945
1738232365.198,-29.785,-11.230,-31.250,-38.086,28.809
1738232365.201,-24.902,-12.695,-27.344,-41.992,483.398
1738232365.205,-38.574,-14.648,-30.762,-41.504,477.051
1738232365.209,-36.133,-8.301,-30.273,-48.340,-243.652
1738232365.213,-32.715,-11.719,-28.320,-45.410,-384.277
1738232365.217,-41.992,-18.555,-36.133,-33.691,-247.559
1738232365.223,-38.574,-12.695,-36.133,-26.367,-205.566
1738232365.227,-32.227,-11.230,-28.320,-56.641,-235.840
1738232365.231,-34.668,-10.742,-27.832,-52.734,-216.309
1738232365.235,-30.762,-6.836,-26.855,-28.320,-13.184
1738232365.239,-30.273,-6.836,-23.926,-37.598,-107.910
1738232365.243,-31.738,-6.836,-28.320,-30.762,-166.504
1738232365.247,-28.320,-10.254,-35.645,-11.719,34.668
1738232365.250,-26.855,-11.230,-29.785,10.254,337.891
1738232365.254,-25.391,-10.742,-21.973,-0.977,-86.914
1738232365.258,-22.461,-7.812,-26.855,-44.922,-291.504
1738232365.262,-17.090,-3.906,-25.879,-57.129,-84.961
1738232365.266,-20.996,-5.859,-26.855,-41.016,-161.133
1738232365.280,-27.832,-4.883,-23.438,-0.977,-309.082
1738232365.284,-21.484,-4.883,-19.531,-7.812,-266.113
1738232365.288,-22.949,-8.789,-26.367,-60.059,-86.914
1738232365.292,-26.855,-11.230,-31.250,-52.246,18.066
1738232365.296,-21.484,-18.555,-31.250,-31.738,-99.609
1738232365.300,-20.996,-19.043,-33.203,-28.809,-138.672
1738232365.304,3.418,-3.418,-50.293,-0.488,368.652
1738232365.307,26.855,0.000,-48.340,22.949,744.141
1738232365.311,-0.488,-11.230,-22.949,-9.766,118.164
1738232365.315,-33.203,-13.672,-30.762,-50.293,-237.793
1738232365.319,-51.270,-23.438,-25.391,-39.062,-147.949
1738232365.323,-49.805,-33.203,2.441,5.371,-303.711
1738232365.326,-46.387,-33.203,12.207,-6.348,-356.934
1738232365.330,-41.504,-41.016,7.812,-30.762,-195.312
1738232365.334,-36.133,-46.875,6.836,-44.434,-117.676
1738232365.338,-45.410,-55.176,5.371,-75.684,-206.055
1738232365.342,-45.410,-59.082,7.812,-39.551,-255.859
1738232365.346,-45.410,-55.176,5.371,-14.160,-4.883
1738232365.350,-43.945,-56.152,5.859,-26.855,142.578
1738232365.353,-48.340,-60.059,16.113,-31.738,48.340
1738232365.357,-46.875,-63.477,21.973,-24.414,-177.734
1738232365.361,-43.457,-64.453,21.484,-5.371,-87.402
1738232365.365,-40.039,-63.965,23.926,-6.836,488.281
1738232365.369,-36.133,-69.824,23.926,-12.695,166.992
1738232365.370,-44.922,-78.125,22.949,-7.812,-203.125
1738232365.374,-43.457,-82.031,21.973,6.348,-41.992
1738232365.378,-46.875,-76.172,19.531,10.742,-122.559
1738232365.382,-47.852,-74.707,21.973,9.277,-297.852
1738232365.386,-27.832,-69.824,16.113,-2.441,-175.293
1738232365.390,-22.461,-60.547,13.184,0.000,103.027
1738232365.394,-23.438,-57.617,16.113,2.441,36.621
1738232365.397,-14.160,-56.641,11.230,-5.859,-95.215
1738232365.401,-19.531,-53.223,-2.441,-1.465,-130.371
1738232365.405,-30.762,-52.246,-11.230,5.859,367.188
1738232365.409,-23.926,-47.363,-12.207,11.719,591.797
1738232365.413,-16.113,-45.410,-8.789,-5.859,-76.172
1738232365.416,-16.602,-43.945,-6.348,-12.207,-334.473
1738232365.420,-22.949,-39.062,-12.207,-1.953,-263.184
1738232365.424,-26.855,-43.945,-17.578,-13.672,-281.250
1738232365.428,-21.484,-46.875,-18.555,-31.250,-187.500
1738232365.432,-17.090,-43.945,-18.066,-38.086,-133.789
1738232365.436,-13.184,-41.992,-20.996,-26.855,-112.305
1738232365.440,-5.859,-31.738,-21.484,-2.930,-39.551
1738232365.443,-14.160,-27.344,-15.625,0.977,-202.637
1738232365.447,-18.066,-31.250,-19.531,-9.277,-10.742
1738232365.451,-10.254,-31.250,-26.855,-11.230,350.098
1738232365.455,-9.766,-30.273,-28.320,-5.371,1.953
1738232365.459,-10.254,-32.715,-28.809,-20.020,-242.188
1738232365.474,-16.602,-33.203,-24.902,-20.508,-85.938
1738232365.478,-24.414,-29.297,-27.832,-9.766,-32.227
1738232365.482,-21.973,-33.203,-29.297,-29.785,-175.781
1738232365.486,-15.625,-32.227,-30.762,-36.133,-227.539
1738232365.490,-15.137,-22.949,-37.109,-25.391,-128.906
1738232365.494,-16.602,-17.090,-38.086,-26.855,-21.484
1738232365.498,-21.973,-19.531,-38.574,-13.184,86.914
1738232365.501,-31.738,-26.855,-38.574,4.883,166.992
1738232365.505,-12.695,-35.156,-41.504,9.766,432.129
1738232365.509,10.742,-32.227,-43.457,8.789,441.895
1738232365.513,-16.113,-22.949,-40.527,-23.438,-151.367
1738232365.517,-59.570,-27.344,-39.062,-52.734,-225.586
1738232365.537,-47.363,-25.879,-39.062,-38.086,-18.066
1738232365.541,-12.695,-23.926,-37.598,-25.879,-8.301
1738232365.545,-21.973,-34.180,-32.715,-39.551,-249.023
1738232365.549,-27.832,-40.039,-34.180,-26.855,-245.605
1738232365.553,-20.020,-32.715,-39.062,1.465,46.875
1738232365.557,-23.926,-30.762,-34.180,-8.789,-48.340
1738232365.561,-24.414,-31.738,-27.832,-21.484,-174.316
1738232365.564,-12.695,-22.461,-29.785,-7.324,-109.863
1738232365.568,-9.277,-22.461,-32.227,-24.414,-143.066
1738232365.572,-21.484,-27.832,-28.320,-22.461,-201.172
1738232365.576,-26.367,-25.391,-28.809,-2.441,-159.180
1738232365.580,-17.090,-28.320,-35.156,-13.672,142.090
1738232365.550,-17.578,-25.879,-37.598,-24.414,310.059
1738232365.554,-23.438,-19.531,-37.598,-33.691,-166.016
1738232365.558,-24.414,-20.996,-36.621,-41.992,-224.609
1738232365.562,-25.391,-24.902,-34.180,-25.879,143.555
1738232365.566,-23.438,-22.949,-37.598,-23.926,39.062
1738232365.570,-21.484,-21.484,-40.039,-28.320,-102.539
1738232365.574,-22.949,-26.855,-38.086,-25.391,11.230
1738232365.577,-26.855,-30.762,-35.156,-26.367,210.938
1738232365.581,-27.832,-28.809,-32.715,-27.832,164.062
1738232365.585,-18.555,-29.785,-31.738,-27.344,-104.980
1738232365.589,-13.184,-37.109,-31.738,-25.879,-191.895
1738232365.593,-19.531,-30.273,-35.645,-41.016,-89.355
1738232365.596,-30.762,-22.461,-37.109,-37.598,-140.137
1738232365.600,-32.227,-23.438,-32.715,-13.184,-135.742
1738232365.604,-23.438,-16.602,-26.367,-3.906,-52.734
1738232365.608,-14.648,-14.160,-23.926,-13.672,396.484
1738232365.612,-16.113,-14.648,-12.695,-20.020,417.969
1738232365.616,-13.184,0.977,14.160,-7.812,-117.676
1738232365.620,-20.508,-4.883,8.789,-10.742,80.078
1738232365.623,-36.133,-20.020,-20.020,-28.320,572.266
1738232365.627,-33.691,-16.602,0.977,-37.109,31.738
1738232365.631,-25.879,-11.230,19.531,-38.086,-367.676
1738232365.635,-63.965,-22.461,-11.230,-67.383,-81.543
1738232365.639,-99.121,-26.367,14.648,-78.125,-8.301
1738232365.685,-81.055,8.789,134.277,-77.637,-149.902
1738232365.689,-138.184,-6.836,67.871,-159.668,-229.980
1738232365.693,-157.715,-27.832,2.441,-165.039,-44.434
1738232365.697,-151.367,-4.395,72.266,-155.273,-71.289
1738232365.701,-189.941,32.715,87.402,-194.824,-219.727
1738232365.705,-218.750,52.734,146.973,-211.426,20.020
1738232365.709,-252.441,39.062,194.824,-266.602,421.875
1738232365.712,-303.711,60.547,148.438,-334.473,382.812
1738232365.716,-314.941,88.379,166.992,-335.938,-114.746
1738232365.720,-348.633,92.773,270.020,-350.098,-185.059
1738232365.724,-379.395,106.934,289.551,-341.309,-12.207
1738232365.728,-337.891,132.324,306.641,-300.781,-159.180
1738232365.731,-308.105,164.551,419.922,-325.684,-321.777
1738232365.735,-309.082,158.203,611.328,-335.938,-252.930
1738232365.739,-337.402,151.367,698.242,-334.961,-140.137
1738232365.743,-305.664,181.641,874.512,-278.320,-117.188
1738232365.747,-283.691,142.090,985.352,-285.645,-176.758
1738232365.751,-294.922,108.398,960.449,-326.660,-124.023
1738232365.755,-285.645,163.574,969.727,-289.062,38.574
1738232365.758,-261.230,167.480,969.238,-250.977,-61.035
1738232365.762,-276.855,178.711,969.238,-272.461,-177.734
1738232365.766,-306.152,225.586,969.238,-304.199,101.562
1738232365.770,-249.512,182.129,969.238,-247.559,355.957
1738232365.774,-234.863,147.461,969.238,-232.422,0.488
1738232365.745,-330.078,159.180,969.238,-326.660,-235.840
1738232365.749,-271.973,243.652,969.238,-246.094,56.641
1738232365.753,-230.957,323.730,969.238,-202.148,94.238
1738232365.757,-286.133,421.387,969.238,-298.828,-120.117
1738232365.761,-323.730,541.016,969.238,-354.980,-261.719
1738232365.765,-272.949,643.066,969.238,-307.617,239.746
1738232365.769,-179.199,746.094,969.238,-190.918,829.102
1738232365.772,-223.633,866.211,969.238,-213.379,313.477
1738232365.776,-236.328,955.566,969.238,-249.512,-70.801
1738232365.780,-214.355,970.703,969.238,-252.930,-38.574
1738232365.784,-243.164,966.797,969.238,-272.949,-209.961
1738232365.788,-279.297,969.727,969.238,-288.574,-283.691
1738232365.805,-294.922,968.750,969.238,-293.945,-181.641
1738232365.809,-245.605,969.238,969.238,-242.188,47.852
1738232365.813,-259.766,969.238,969.238,-276.367,-21.973
1738232365.817,-283.203,969.238,969.238,-290.527,-263.184
1738232365.821,-250.000,969.238,969.238,-243.164,-184.082
1738232365.825,-222.168,969.238,969.238,-233.398,712.891
1738232365.829,-210.938,969.238,968.750,-248.535,883.789
1738232365.832,-190.918,969.238,969.238,-231.934,-69.336
1738232365.836,-138.184,969.238,969.238,-155.273,-204.102
1738232365.840,-114.258,969.238,969.238,-110.352,264.160
1738232365.844,-87.402,969.238,968.750,-72.754,-34.668
1738232365.848,-59.082,969.238,969.238,-51.758,-265.625
1738232365.835,-59.082,969.238,969.238,-62.500,-96.680
1738232365.839,-28.809,969.238,969.238,-36.621,-168.457
1738232365.843,-13.672,969.238,969.238,-13.184,-346.191
1738232365.847,-32.227,969.238,968.750,-32.715,-138.672
1738232365.851,-27.344,969.238,969.727,-29.785,225.586
1738232365.855,-13.184,969.238,965.820,-11.719,23.926
1738232365.859,8.789,969.238,962.891,-3.906,-146.484
1738232365.862,41.992,969.238,959.473,41.504,-2.930
1738232365.866,42.480,969.238,954.102,51.270,259.277
1738232365.870,16.113,969.238,956.055,11.230,97.168
1738232365.874,7.812,969.727,955.566,5.371,-250.977
1738232365.878,10.254,968.262,953.613,8.301,-210.449
1738232365.881,26.367,968.750,953.613,25.391,262.207
1738232365.885,30.273,968.262,955.078,22.949,187.500
1738232365.889,33.203,919.434,956.055,21.973,-152.832
1738232365.893,49.316,844.238,955.566,41.504,-159.668
1738232365.897,71.289,768.555,955.078,58.594,-198.242
1738232365.901,67.383,657.227,954.590,67.383,-171.875
1738232365.905,68.848,547.852,946.777,86.426,-15.137
1738232365.908,110.352,448.730,938.965,126.953,266.602
1738232365.912,134.766,357.422,918.945,145.508,190.918
1738232365.916,132.812,266.602,686.523,163.574,-174.805
1738232365.920,152.344,177.246,254.883,159.180,-345.703
1738232365.924,186.035,114.746,-52.734,157.227,-8.789
1738232365.924,188.965,57.129,-333.008,190.918,450.684
1738232365.928,190.430,-11.230,-817.383,197.754,-35.645
1738232365.932,197.754,-75.684,-1000.000,202.637,-298.828
1738232365.936,202.637,-147.949,-985.352,209.473,-154.297
1738232365.940,200.195,-220.703,-1000.000,205.566,-202.637
1738232365.944,188.477,-279.785,-1000.000,197.754,-20.508
1738232365.948,200.195,-336.426,-1000.000,189.941,91.309
1738232365.951,218.262,-389.160,-1000.000,197.754,430.176
1738232365.955,209.961,-412.598,-1000.000,205.566,625.000
1738232365.959,194.336,-412.598,-1000.000,209.473,-24.902
1738232365.963,194.824,-420.898,-1000.000,212.402,-227.051
1738232365.967,204.590,-441.406,-1000.000,206.055,46.875
1738232366.000,202.148,-441.895,-1000.000,190.430,-198.242
1738232366.004,208.496,-444.824,-1000.000,171.387,-374.512
1738232366.008,201.172,-440.430,-1000.000,182.129,-257.812
1738232366.012,183.594,-413.086,-1000.000,196.289,-146.973
1738232366.016,187.500,-402.832,-1000.000,187.988,-124.512
1738232366.020,190.918,-394.531,-1000.000,200.684,-201.660
1738232366.024,189.453,-379.883,-1000.000,207.031,-27.344
1738232366.027,189.941,-376.465,-1000.000,181.152,300.781
1738232366.031,177.734,-367.188,-1000.000,168.945,5.859
1738232366.035,173.340,-362.305,-1000.000,172.363,-175.293
1738232366.039,187.012,-366.699,-1000.000,167.969,-76.660
1738232366.043,180.664,-362.793,-1000.000,159.668,-38.574
1738232366.015,161.133,-352.539,-1000.000,161.621,-150.879
1738232366.019,156.250,-353.027,-1000.000,156.738,-182.617
1738232366.023,152.832,-357.422,-1000.000,148.438,109.375
1738232366.027,154.297,-342.773,-1000.000,142.578,4.395
1738232366.031,158.203,-329.590,-1000.000,145.020,-211.426
1738232366.035,154.297,-327.148,-1000.000,135.742,-61.523
1738232366.039,137.695,-321.777,-1000.000,121.582,176.758
1738232366.042,127.441,-313.965,-999.023,123.047,198.242
1738232366.046,125.488,-298.828,-1000.000,119.141,-91.797
1738232366.050,121.094,-285.645,-1000.000,101.074,-198.730
1738232366.054,117.676,-280.273,-999.512,89.355,215.820
1738232366.058,105.469,-276.855,-998.047,92.285,144.043
1738232366.077,91.309,-270.508,-988.770,97.168,-178.223
1738232366.081,92.773,-262.695,-972.168,91.309,-24.414
1738232366.085,93.750,-268.555,-966.309,74.707,459.473
1738232366.089,76.172,-263.184,-942.383,65.430,295.898
1738232366.093,56.641,-259.766,-917.480,72.266,-312.988
1738232366.097,43.457,-261.230,-916.016,76.172,0.000
1738232366.101,51.758,-260.254,-923.828,49.316,482.910
1738232366.104,56.641,-275.391,-926.270,20.508,-7.324
1738232366.108,49.805,-285.156,-911.621,21.484,-406.250
1738232366.112,41.016,-285.645,-905.273,23.438,-182.617
1738232366.116,33.691,-276.367,-889.648,27.344,-40.039
1738232366.120,22.949,-264.160,-862.793,24.902,-164.551
1738232366.180,23.438,-273.926,-836.914,24.902,-229.980
1738232366.184,17.090,-283.691,-823.730,32.227,-168.945
1738232366.188,14.160,-283.203,-806.641,14.160,-208.496
1738232366.192,16.602,-291.992,-800.781,2.441,-264.648
1738232366.240,-4.395,-302.246,-843.262,-34.668,-311.035
1738232366.244,-13.672,-293.945,-850.586,-27.832,-122.559
1738232366.248,-17.578,-288.574,-837.402,-15.625,-184.082
1738232366.252,-9.766,-288.574,-809.082,-14.648,-242.676
1738232366.256,-11.719,-286.133,-783.691,-18.066,-180.176
1738232366.260,-17.090,-276.367,-764.648,-8.789,-129.395
1738232366.264,-20.996,-278.809,-741.211,-3.418,-122.070
1738232366.267,-24.902,-292.969,-727.051,1.465,24.902
1738232366.271,-23.926,-293.945,-708.008,1.465,95.703
1738232366.275,-23.926,-284.180,-689.941,-41.504,-61.523
1738232366.279,-16.602,-276.855,-686.523,-70.312,-279.785
1738232366.283,-14.160,-280.762,-695.312,-44.922,-269.043
1738232366.269,-17.090,-280.273,-700.195,-16.602,53.711
1738232366.273,-8.789,-266.602,-688.965,-9.766,101.074
1738232366.277,-10.254,-264.160,-672.852,-20.996,-100.098
1738232366.281,-18.555,-271.973,-653.809,-22.461,-192.383
1738232366.285,-23.926,-271.973,-635.254,-22.461,188.477
1738232366.289,-30.273,-264.160,-601.074,-28.809,361.328
1738232366.293,-17.090,-257.812,-562.500,-32.227,48.828
1738232366.296,-7.812,-259.766,-539.551,-45.898,47.363
1738232366.300,-10.742,-259.277,-530.762,-45.410,110.840
1738232366.304,-16.113,-250.000,-519.531,-41.016,-74.707
1738232366.308,-37.109,-241.211,-510.254,-31.250,-289.551
1738232366.312,-54.688,-239.746,-498.047,-16.602,-201.660
1738232366.290,-41.016,-231.934,-482.422,-15.137,267.090
1738232366.294,-41.504,-228.516,-474.121,-16.113,119.141
1738232366.298,-41.016,-228.516,-480.957,-14.648,-372.559
1738232366.302,-29.785,-215.332,-478.516,-13.184,-218.750
1738232366.306,-25.391,-210.938,-464.844,-23.926,173.828
1738232366.310,-15.137,-206.055,-464.844,-31.250,-14.648
1738232366.314,-8.789,-195.312,-473.633,-40.527,-192.383
1738232366.317,-13.184,-195.801,-475.586,-47.852,-101.562
1738232366.321,-24.902,-193.848,-468.750,-39.551,-68.359
1738232366.325,-19.043,-200.684,-453.613,3.906,-173.828
1738232366.329,25.879,-197.754,-452.148,46.387,-238.281
1738232366.333,31.250,-168.457,-460.938,15.137,-4.395
1738232366.294,-4.883,-162.109,-459.473,-47.852,13.672
1738232366.298,5.371,-167.969,-465.820,-46.875,-258.301
1738232366.302,9.277,-170.410,-475.098,-16.113,-218.750
1738232366.306,4.395,-170.898,-483.887,-6.348,155.273
1738232366.310,0.000,-159.180,-490.723,-7.812,538.574
1738232366.314,-19.531,-150.879,-476.074,-28.809,207.031
1738232366.318,-6.836,-145.508,-469.727,-16.602,-25.391
1738232366.321,-0.488,-146.973,-477.539,2.930,421.387
1738232366.325,-6.348,-142.090,-469.727,-29.785,212.402
1738232366.329,15.625,-125.977,-466.309,-27.832,-306.641
1738232366.333,8.789,-122.559,-474.121,-19.043,-286.621
1738232366.337,21.973,-111.816,-483.398,-7.324,135.254
1738232366.393,32.227,-91.309,-477.051,-2.930,41.504
1738232366.397,25.391,-86.914,-471.191,-18.555,-204.102
1738232366.401,41.016,-87.891,-467.285,-12.207,6.348
1738232366.405,15.625,-99.609,-449.707,-20.508,338.867
1738232366.409,26.855,-103.027,-444.824,1.465,587.891
1738232366.413,33.691,-92.773,-446.777,8.789,659.180
1738232366.417,10.254,-93.750,-444.824,-6.836,400.879
1738232366.420,13.184,-93.262,-432.129,-7.324,28.809
1738232366.424,13.184,-86.914,-416.016,-22.461,-346.191
1738232366.428,23.438,-81.055,-414.551,-13.184,-456.543
1738232366.432,22.461,-76.660,-410.645,12.207,-277.344
1738232366.436,10.254,-71.289,-393.066,18.066,-196.777
1738232366.405,13.184,-66.895,-363.281,16.113,-291.016
1738232366.409,14.160,-68.848,-337.402,-2.441,-346.680
1738232366.413,11.719,-79.590,-323.242,3.418,-153.320
1738232366.417,9.277,-80.078,-307.617,-3.906,-175.781
1738232366.421,5.371,-73.242,-308.105,-17.090,-229.492
1738232366.425,13.184,-71.289,-309.570,-14.648,-67.383
1738232366.429,16.113,-71.777,-297.852,-27.832,265.137
1738232366.432,2.930,-75.684,-291.504,-32.227,137.695
1738232366.436,0.977,-74.219,-283.691,-14.648,-144.531
1738232366.440,-0.488,-71.289,-280.762,-3.418,-92.773
1738232366.444,-2.441,-75.684,-275.879,-20.508,4.883
1738232366.448,0.977,-75.195,-260.254,-34.668,-180.176
1738232366.451,9.766,-69.336,-250.977,-32.227,-332.520
1738232366.455,20.508,-72.754,-244.629,-27.344,-250.488
1738232366.459,11.230,-81.543,-232.910,-16.113,-51.270
1738232366.463,8.301,-76.660,-226.074,-13.672,-78.125
1738232366.467,5.371,-71.777,-222.168,-20.020,-221.191
1738232366.471,6.348,-70.801,-224.609,-13.184,-20.020
1738232366.475,16.113,-68.359,-249.023,-6.836,581.055
1738232366.478,-7.324,-66.895,-262.695,-0.488,690.430
1738232366.482,-20.996,-69.824,-255.859,-18.066,-25.391
1738232366.486,-7.812,-75.684,-253.418,-26.855,-150.879
1738232366.490,-5.859,-78.613,-240.723,-16.113,324.707
1738232366.494,-23.926,-78.613,-229.004,-21.973,-83.008
1738232366.496,-31.250,-83.496,-227.051,-7.812,-354.004
1738232366.500,-26.855,-86.914,-219.727,-9.277,-114.258
1738232366.504,-19.531,-84.961,-210.938,-38.086,-197.754
1738232366.508,-19.531,-93.750,-218.262,-24.902,-350.098
1738232366.512,-31.250,-98.633,-230.957,-32.227,-330.078
1738232366.516,-47.852,-100.586,-246.582,-45.898,63.477
1738232366.520,-56.641,-96.680,-255.859,-48.828,231.934
1738232366.523,-33.691,-92.285,-238.770,-54.199,56.152
1738232366.527,-23.926,-90.820,-226.074,-30.762,-144.043
1738232366.531,-43.945,-89.355,-230.957,-53.711,196.777
1738232366.535,-32.227,-86.914,-220.703,-54.688,118.652
1738232366.539,-25.391,-77.637,-215.820,-35.156,-277.832
1738232366.572,-26.367,-88.379,-216.309,-32.715,-171.875
1738232366.576,-26.367,-91.309,-204.102,-41.504,255.371
1738232366.580,-78.125,-84.961,-189.453,-86.426,82.031
1738232366.584,-102.539,-87.402,-191.895,-90.332,-337.402
1738232366.588,-75.195,-96.191,-189.453,-66.895,-170.410
1738232366.592,-75.684,-102.051,-173.828,-87.402,19.531
1738232366.596,-62.988,-116.211,-161.133,-64.941,-20.508
1738232366.599,-35.645,-109.375,-164.551,-47.363,-275.879
1738232366.603,-45.410,-103.027,-164.062,-68.359,-160.156
1738232366.607,-50.781,-101.562,-151.855,-51.758,312.988
1738232366.611,-35.156,-91.797,-142.578,-46.387,10.254
1738232366.615,-25.391,-90.820,-127.441,-45.898,-212.402
1738232366.577,-32.227,-95.703,-123.047,-37.109,42.969
1738232366.581,-38.086,-85.449,-130.859,-41.016,-59.082
1738232366.585,-41.504,-80.566,-134.766,-47.363,-254.883
1738232366.589,-32.715,-82.031,-139.160,-48.340,-199.219
1738232366.593,-21.973,-76.172,-138.672,-40.039,15.625
1738232366.597,-37.598,-72.266,-133.789,-39.551,13.184
1738232366.601,-38.086,-64.941,-132.812,-47.363,-93.750
1738232366.604,-26.855,-59.082,-125.488,-41.504,11.230
1738232366.608,-34.180,-62.500,-119.141,-28.320,129.395
1738232366.612,-38.086,-63.965,-120.117,-53.711,-85.938
1738232366.616,-24.414,-64.453,-121.094,-56.641,-299.805
1738232366.620,-10.254,-64.941,-124.023,-28.320,-231.445
1738232366.633,-6.348,-60.547,-132.324,-19.531,-27.832
1738232366.637,-32.715,-67.383,-136.230,-43.945,-55.176
1738232366.641,-41.504,-73.730,-133.789,-57.617,-65.430
1738232366.645,-38.574,-70.801,-137.207,-36.133,-47.363
1738232366.649,-41.016,-65.918,-145.020,-39.062,319.824
1738232366.653,-26.367,-55.664,-148.926,-37.109,790.527
1738232366.657,-29.785,-52.734,-145.020,-17.578,491.699
1738232366.660,-22.949,-54.688,-141.602,-7.812,-21.973
1738232366.664,-8.789,-46.387,-145.996,2.441,-49.316
1738232366.668,-25.391,-47.363,-153.320,-28.320,-294.434
1738232366.672,-53.711,-51.270,-158.691,-57.129,-361.328
1738232366.676,-55.664,-55.176,-159.180,-57.617,-146.484
1738232366.691,-40.527,-56.641,-145.020,-57.129,-147.461
1738232366.695,-37.109,-55.176,-133.301,-51.758,-299.316
1738232366.699,-38.086,-63.477,-133.789,-46.875,-307.129
1738232366.703,-38.086,-68.848,-130.859,-43.457,-207.031
1738232366.707,-39.062,-61.035,-129.883,-37.109,-84.473
1738232366.711,-33.691,-56.152,-125.977,-22.949,44.922
1738232366.715,-26.367,-53.711,-121.582,-19.531,-8.301
1738232366.718,-42.480,-54.199,-133.301,-50.293,288.574
1738232366.722,-58.105,-61.523,-129.395,-70.801,643.066
1738232366.726,-49.316,-58.105,-123.047,-37.109,109.375
1738232366.730,-39.551,-50.781,-138.184,-24.902,-219.727
1738232366.734,-37.598,-48.340,-147.461,-44.922,-155.762
1738232366.737,-52.734,-52.246,-142.090,-41.992,-281.738
1738232366.741,-46.875,-55.176,-136.230,-33.691,-320.312
1738232366.745,-43.457,-54.688,-141.113,-29.785,-190.430
1738232366.749,-53.223,-53.711,-140.137,-42.480,-121.582
1738232366.753,-51.758,-51.758,-139.160,-54.688,-280.273
1738232366.757,-64.453,-47.852,-140.137,-80.078,-276.855
1738232366.761,-68.359,-40.039,-141.113,-91.309,-11.230
1738232366.764,-59.082,-38.086,-144.043,-70.801,-34.668
1738232366.768,-44.434,-40.039,-144.043,-64.453,-136.719
1738232366.772,-34.668,-41.504,-143.555,-62.012,-235.352
1738232366.776,-43.945,-42.480,-153.320,-46.875,-79.590
1738232366.780,-38.574,-41.992,-155.273,-35.645,398.926
1738232366.780,-27.344,-37.109,-142.578,-43.457,-6.836
1738232366.784,-35.645,-30.762,-141.602,-43.457,-281.250
1738232366.788,-39.551,-26.855,-146.484,-36.133,-75.684
1738232366.792,-58.105,-34.668,-145.020,-55.664,-184.082
1738232366.796,-57.129,-37.109,-142.090,-47.852,-287.109
1738232366.800,-34.180,-35.156,-141.602,-23.926,-74.219
1738232366.804,-44.434,-39.551,-136.719,-32.715,192.871
1738232366.807,-58.594,-31.738,-132.812,-54.199,82.031
1738232366.811,-59.570,-32.227,-121.582,-45.898,-200.195
1738232366.815,-50.293,-36.621,-122.070,-32.715,-270.996
1738232366.819,-25.391,-44.434,-129.395,-29.785,294.434
1738232366.823,-34.668,-51.270,-121.094,-23.438,656.250
1738232366.855,-53.223,-41.992,-116.211,-30.762,58.594
1738232366.859,-44.434,-37.598,-111.328,-35.156,-276.855
1738232366.863,-26.855,-35.645,-111.328,-32.715,-231.445
1738232366.867,-17.090,-32.227,-115.234,-28.809,-284.668
1738232366.871,-32.227,-35.645,-112.793,-16.113,-275.391
1738232366.875,-38.574,-37.598,-113.281,-17.090,-73.242
1738232366.879,-17.090,-32.227,-113.281,-33.691,49.316
1738232366.882,-15.625,-29.785,-110.352,-29.297,-222.168
1738232366.886,-25.391,-39.062,-104.980,-21.973,-288.574
1738232366.890,-24.902,-38.574,-105.957,-27.344,41.504
1738232366.894,-30.762,-36.621,-103.516,-25.391,292.480
1738232366.898,-21.484,-38.574,-103.516,-31.250,-84.961
1738232366.903,-17.090,-44.922,-111.328,-23.438,-175.293
1738232366.907,-12.207,-34.668,-112.305,-18.555,-5.859
1738232366.911,-2.441,-16.113,-104.492,-23.926,-95.703
1738232366.915,-19.531,-31.250,-94.727,-11.230,-227.539
1738232366.919,-23.926,-38.086,-97.656,-21.484,-168.945
1738232366.923,-10.254,-30.273,-102.539,-26.367,111.816
1738232366.927,-9.277,-37.598,-84.961,-8.301,-14.648
1738232366.930,-16.602,-45.410,-78.613,-6.836,-136.719
1738232366.934,-26.855,-47.852,-86.914,-22.461,21.973
1738232366.938,-24.414,-43.457,-95.215,-38.086,90.820
1738232366.942,-18.066,-41.016,-89.844,-26.855,-144.531
1738232366.946,-21.973,-41.016,-80.566,-9.766,-289.551
1738232366.909,-18.555,-41.504,-80.566,-7.812,-241.211
1738232366.913,-24.902,-49.805,-88.379,-7.812,351.074
1738232366.917,-23.438,-39.551,-80.566,-33.203,709.473
1738232366.921,-18.555,-31.738,-65.918,-37.109,-21.484
1738232366.925,-9.766,-36.133,-67.871,-26.855,-248.047
1738232366.929,-14.648,-36.621,-74.219,-20.996,152.832
1738232366.933,-22.461,-41.992,-73.730,-2.441,17.578
1738232366.936,-21.973,-41.016,-73.242,9.277,-203.125
1738232366.940,-27.832,-33.691,-71.289,1.465,-135.742
1738232366.944,-20.996,-32.715,-75.684,-5.371,-139.648
1738232366.948,-4.395,-34.180,-78.125,-8.789,-256.836
1738232366.952,-15.625,-37.109,-70.312,-18.066,-248.047
1738232366.991,-20.020,-35.156,-65.430,-6.836,-23.926
1738232366.995,-17.578,-33.203,-57.617,-19.043,-49.316
1738232366.999,-12.695,-31.250,-49.316,-42.969,-249.023
1738232367.003,-3.418,-26.855,-50.781,-25.879,-262.207
1738232367.007,-15.625,-31.250,-66.895,-14.160,182.129
1738232367.011,-41.992,-36.133,-73.730,5.371,890.625
1738232367.015,-29.297,-30.273,-62.012,5.859,921.875
1738232367.018,-22.461,-24.902,-60.547,-26.367,302.734
1738232367.022,-27.344,-28.809,-68.359,-46.387,215.820
1738232367.026,-5.859,-30.762,-56.641,-53.223,107.910
1738232367.030,12.207,-34.668,-57.129,-16.602,-278.809
1738232367.034,-33.203,-34.180,-72.754,-14.160,-286.621
1738232367.007,-91.797,-34.668,-81.543,-73.730,-219.727
1738232367.011,-50.293,-37.109,-86.426,-54.199,-324.707
1738232367.015,-43.457,-38.086,-90.332,-39.062,-379.395
1738232367.019,-50.781,-43.945,-85.938,-26.855,-188.477
1738232367.023,-8.301,-42.969,-79.590,-39.551,-38.574
1738232367.027,21.973,-40.527,-78.125,-35.645,-55.176
1738232367.031,11.719,-49.316,-75.684,-19.043,-165.039
1738232367.034,-9.766,-49.805,-84.961,-35.645,-65.918
1738232367.038,-3.418,-45.898,-88.379,-42.969,-19.531
1738232367.042,60.059,-49.316,-73.242,-15.625,-228.027
1738232367.046,48.340,-48.828,-71.777,-20.508,-285.645
1738232367.050,-14.160,-55.664,-81.055,-18.555,-158.691
1738232367.065,-2.441,-69.824,-89.844,10.742,-145.020
1738232367.069,4.395,-71.777,-93.262,18.555,-168.457
1738232367.073,-19.043,-67.383,-90.332,0.488,-102.539
1738232367.077,-0.488,-71.777,-95.703,-11.719,180.176
1738232367.081,4.395,-71.289,-99.609,-29.297,458.008
1738232367.085,2.441,-63.477,-99.609,-27.832,31.738
1738232367.089,10.742,-54.199,-100.586,-3.418,-185.059
1738232367.092,4.883,-54.199,-106.445,-3.418,439.453
1738232367.096,-18.555,-62.012,-99.609,-16.602,609.375
1738232367.100,-10.254,-59.570,-90.820,-35.645,-115.723
1738232367.104,5.859,-56.152,-97.168,-48.828,-121.582
1738232367.108,-7.324,-63.965,-93.750,1.465,91.309
1738232367.127,-7.324,-63.965,-98.633,51.270,-113.770
1738232367.131,-14.160,-57.129,-116.699,-9.277,-221.680
1738232367.135,6.836,-56.152,-128.906,-19.531,-197.754
1738232367.139,21.484,-56.641,-129.395,18.066,-190.430
1738232367.143,-39.551,-52.246,-127.930,6.836,-191.406
1738232367.147,-66.406,-48.828,-142.090,-51.758,-45.898
1738232367.151,-62.500,-49.805,-148.926,-66.406,131.348
1738232367.154,-64.941,-50.781,-130.371,-50.781,-3.418
1738232367.158,-56.152,-49.805,-121.094,-41.504,-236.816
1738232367.162,-43.945,-41.504,-134.766,-36.621,-281.250
1738232367.166,-25.879,-38.086,-145.508,-49.805,-34.668
1738232367.170,-28.809,-42.480,-134.766,-59.570,126.953
1738232367.189,-20.996,-39.062,-123.535,-66.406,-137.207
1738232367.193,-21.484,-32.227,-110.840,-57.129,-209.473
1738232367.197,-24.414,-30.762,-104.004,-21.484,1.953
1738232367.201,-16.602,-32.227,-103.027,-5.859,-39.551
1738232367.194,-20.020,-20.020,-79.102,-37.109,-181.152
1738232367.198,-54.688,-35.156,-73.242,-15.137,-239.746
1738232367.202,-79.590,-38.086,-63.477,-13.672,380.371
1738232367.206,-36.133,-33.203,-59.570,-18.555,238.770
1738232367.210,-20.996,-36.621,-66.406,-12.695,-316.406
1738232367.214,-21.973,-25.391,-69.824,-30.273,-107.422
1738232367.218,-16.602,-19.531,-69.824,-43.457,120.605
1738232367.221,-25.879,-24.902,-68.848,-18.555,-73.242
1738232367.225,-42.480,-25.391,-69.824,-24.902,-256.836
1738232367.229,-41.992,-24.414,-71.777,-25.879,-178.223
1738232367.233,-31.250,-26.855,-68.359,-11.719,-120.605
1738232367.237,-34.668,-28.809,-76.660,-20.020,-205.566
1738232367.248,-25.391,-29.297,-81.543,-27.832,-154.785
1738232367.252,-35.645,-38.574,-71.777,-24.414,44.434
1738232367.256,-67.871,-38.086,-67.871,-25.391,-44.434
1738232367.260,-57.129,-30.273,-78.125,-42.969,-260.742
1738232367.264,-40.527,-30.762,-84.961,-48.828,-171.387
1738232367.268,-42.480,-32.227,-86.914,-32.227,369.629
1738232367.272,-33.691,-30.273,-83.008,-39.551,871.094
1738232367.275,-34.668,-30.273,-78.613,-49.805,950.684
1738232367.279,-47.363,-36.621,-68.848,-22.461,687.500
1738232367.283,-42.480,-31.250,-61.523,-3.906,-17.578
1738232367.287,-25.879,-22.461,-64.453,-14.160,-270.996
1738232367.291,-10.742,-23.438,-63.477,-27.832,-290.039
1738232367.291,-22.949,-23.926,-64.941,-43.945,-297.363
1738232367.295,-27.344,-25.879,-61.523,-30.762,-53.711
1738232367.299,-34.180,-30.762,-56.152,-15.625,-196.777
1738232367.303,-47.852,-30.762,-58.594,-15.137,-315.430
1738232367.307,-35.645,-33.203,-65.430,-17.578,-151.855
1738232367.311,-61.523,-39.062,-69.336,-28.320,38.086
1738232367.315,-67.383,-31.250,-63.477,-28.809,-105.469
1738232367.318,-45.898,-22.461,-60.059,-29.785,-259.766
1738232367.322,-41.992,-28.809,-64.941,-40.527,-26.855
1738232367.326,-35.156,-34.180,-68.848,-27.832,510.742
1738232367.330,-34.180,-30.762,-60.059,-25.879,479.004
1738232367.334,-41.992,-29.297,-47.363,-42.480,-169.922
1738232367.350,-38.086,-27.832,-50.781,-58.105,-285.156
1738232367.354,-46.875,-26.855,-54.688,-57.617,-219.727
1738232367.358,-45.410,-27.832,-48.340,-46.387,-256.348
1738232367.362,-50.293,-33.203,-50.293,-40.527,-262.695
1738232367.366,-53.711,-32.715,-47.852,-45.898,-168.945
1738232367.370,-29.297,-28.320,-45.898,-42.969,-58.105
1738232367.374,-40.039,-32.715,-49.805,-43.457,-4.395
1738232367.377,-59.082,-34.180,-50.781,-53.223,-13.672
1738232367.381,-36.133,-27.832,-57.129,-47.852,302.734
1738232367.385,-21.973,-26.367,-57.129,-29.785,480.957
1738232367.389,-31.250,-28.320,-52.246,-38.086,-41.992
1738232367.393,-43.457,-32.227,-56.152,-45.410,-208.496
1738232367.410,-59.082,-35.156,-61.035,-51.270,-23.438
1738232367.414,-51.758,-38.086,-58.594,-41.504,-156.250
1738232367.418,-5.859,-32.715,-61.035,-10.742,-276.367
1738232367.422,-1.953,-27.344,-67.383,3.418,-200.195
1738232367.426,-44.922,-36.133,-59.570,-22.461,-26.367
1738232367.430,-55.664,-42.480,-62.500,-46.387,67.383
1738232367.434,-50.293,-44.922,-62.988,-39.062,38.574
1738232367.437,-45.898,-38.086,-70.801,-50.293,-45.898
1738232367.441,-33.691,-33.691,-86.914,-52.246,-118.164
1738232367.445,-58.105,-46.875,-75.195,-57.617,-234.863
1738232367.449,-48.828,-48.828,-67.871,-35.156,-270.020
1738232367.453,-28.320,-51.270,-69.824,-15.625,12.695
1738232367.424,-51.270,-49.805,-64.941,-45.898,374.512
1738232367.428,-46.387,-37.109,-63.965,-55.176,36.621
1738232367.432,-26.855,-36.133,-76.172,-29.297,-244.629
1738232367.436,-31.250,-45.898,-80.566,-11.230,-4.395
1738232367.440,-36.133,-41.504,-75.195,-17.578,-16.602
1738232367.444,-26.367,-35.156,-77.148,-31.250,-169.922
1738232367.448,-28.809,-42.480,-76.172,-26.367,-102.051
1738232367.451,-31.250,-45.898,-70.801,-14.160,261.230
1738232367.455,-38.086,-47.363,-69.336,-11.230,102.051
1738232367.459,-42.969,-43.457,-78.125,-20.996,-236.328
1738232367.463,-38.574,-37.109,-81.055,-41.016,-154.785
1738232367.467,-33.203,-44.922,-74.219,-37.109,255.371
1738232367.486,-32.227,-47.363,-60.547,-45.898,128.418
1738232367.490,-36.621,-42.969,-51.758,-43.457,-261.719
1738232367.494,-33.691,-43.457,-51.270,-27.832,-67.871
1738232367.498,-31.250,-46.875,-54.688,-28.320,585.938
1738232367.502,-30.762,-45.410,-50.293,-33.203,430.664
1738232367.506,-39.062,-40.039,-48.340,-51.270,-219.238
1738232367.510,-52.246,-43.457,-51.270,-44.434,-32.715
1738232367.513,-41.504,-45.898,-54.688,-17.090,419.434
1738232367.517,-50.293,-44.922,-50.781,-28.809,-0.488
1738232367.521,-62.988,-41.504,-40.527,-34.668,-337.402
1738232367.525,-15.137,-37.598,-38.086,-23.926,-233.398
1738232367.529,-29.785,-37.598,-47.363,-31.738,-188.965
1738232367.545,-91.309,-40.527,-51.758,-50.293,-154.297
1738232367.549,-52.734,-39.551,-47.363,-64.941,-108.398
1738232367.553,-1.465,-30.273,-45.410,-31.738,-66.895
1738232367.557,-34.668,-37.598,-41.504,-31.738,-130.859
1738232367.561,-77.637,-41.504,-50.293,-95.215,-206.055
1738232367.565,-47.363,-32.227,-56.641,-8.789,-1.465
1738232367.569,-14.648,-27.344,-56.641,36.621,509.277
1738232367.572,-25.391,-31.250,-58.105,-8.301,385.254
1738232367.576,-10.254,-26.855,-63.477,-41.992,-21.484
1738232367.580,-6.836,-25.879,-61.523,-26.367,-182.129
1738232367.584,0.000,-31.250,-64.453,-10.254,292.480
1738232367.588,-26.855,-27.832,-66.895,-67.871,711.914
1738232367.621,-35.156,-30.762,-57.129,-33.203,93.750
1738232367.625,-18.066,-34.668,-59.570,-19.043,-273.438
1738232367.629,-20.508,-34.668,-65.430,-24.902,-193.848
1738232367.633,-17.090,-36.133,-70.312,-2.441,-211.914
1738232367.637,-9.766,-40.039,-71.777,-16.602,-204.590
1738232367.641,-24.414,-42.969,-75.195,-49.316,28.809
1738232367.645,-20.508,-44.434,-79.102,-60.059,159.668
1738232367.648,-10.254,-48.828,-74.219,-51.270,-170.410
1738232367.652,-20.020,-44.434,-81.055,-49.805,-218.750
1738232367.656,-19.531,-40.039,-79.590,-39.062,-42.480
1738232367.660,-18.555,-38.574,-66.895,-30.762,-5.859
1738232367.664,-11.719,-36.133,-63.477,-31.250,-199.219
1738232367.626,1.953,-39.062,-63.965,-36.133,-282.227
1738232367.630,-9.277,-44.434,-71.289,-45.410,-44.922
1738232367.634,-28.809,-42.480,-72.266,-34.180,55.664
1738232367.638,-20.508,-40.527,-58.105,-23.926,-143.555
1738232367.642,-12.695,-37.109,-51.758,-23.438,-185.547
1738232367.646,-14.160,-34.180,-60.059,-23.438,202.148
1738232367.650,-20.020,-34.180,-55.664,-27.344,227.539
1738232367.653,-22.461,-32.715,-47.852,-7.812,-76.660
1738232367.657,-4.883,-38.086,-49.316,6.348,-52.246
1738232367.661,-25.879,-41.504,-52.246,-17.090,9.277
1738232367.665,-39.062,-37.109,-56.152,-24.902,-118.652
1738232367.669,-23.438,-39.062,-56.641,-10.742,-154.785
1738232367.683,-39.062,-48.828,-56.152,-11.719,-76.172
1738232367.687,-31.250,-46.387,-50.293,-0.488,46.387
1738232367.691,-2.441,-31.738,-48.828,-3.418,-116.211
1738232367.695,-21.484,-31.250,-52.246,-37.109,-311.035
1738232367.699,-28.320,-38.574,-55.176,-49.805,-166.992
1738232367.703,-22.949,-32.715,-57.617,-16.602,130.371
1738232367.707,-10.254,-27.344,-44.922,25.879,82.031
1738232367.710,-9.766,-34.668,-45.410,-7.324,-111.816
1738232367.714,0.977,-33.203,-55.664,-24.414,-38.086
1738232367.718,-14.648,-32.227,-58.594,-13.184,490.234
1738232367.722,-40.039,-38.574,-63.477,-27.344,691.895
1738232367.726,-23.438,-38.086,-61.035,-12.207,313.965
1738232367.728,-20.020,-39.551,-61.523,-23.926,-67.871
1738232367.732,-42.969,-44.434,-57.617,-48.340,-115.723
1738232367.736,-72.266,-47.852,-55.664,-49.316,-324.707
1738232367.740,-53.711,-46.387,-64.941,-37.109,-361.816
1738232367.744,-44.922,-43.945,-65.430,-35.156,104.980
1738232367.748,-43.945,-39.062,-57.617,-37.598,158.691
1738232367.752,-35.645,-41.016,-52.246,-35.645,-110.352
1738232367.755,-28.809,-47.852,-51.270,-22.949,-82.520
1738232367.759,-10.254,-50.781,-49.316,2.930,40.527
1738232367.763,-62.012,-40.527,-59.082,-29.785,-85.938
1738232367.767,-77.637,-31.738,-69.824,-83.008,-259.766
1738232367.771,-38.086,-32.715,-67.871,-66.406,-278.809
1738232367.786,-15.137,-37.598,-64.453,-20.020,174.316
1738232367.790,-39.551,-31.738,-65.918,-41.992,189.453
1738232367.794,-59.570,-27.832,-74.707,-79.102,-269.043
1738232367.798,0.488,-31.738,-72.266,-30.762,-128.418
1738232367.802,-17.578,-26.367,-78.613,-47.363,28.809
1738232367.806,-39.062,-25.391,-83.984,-64.453,-89.355
1738232367.810,-22.461,-31.250,-77.637,-32.227,-80.078
1738232367.813,7.324,-26.855,-81.055,-17.578,-39.551
1738232367.817,-0.488,-26.855,-78.125,-18.066,-83.496
1738232367.821,-12.695,-31.250,-76.172,-52.734,-242.676
1738232367.825,-13.672,-27.832,-78.125,-55.664,-322.266
1738232367.829,7.812,-29.785,-75.684,-3.906,-135.254
1738232367.800,-6.348,-34.668,-77.637,10.742,532.227
1738232367.804,-30.273,-30.273,-72.754,-31.250,513.672
1738232367.808,0.000,-25.391,-62.988,-35.156,-148.926
1738232367.812,-9.766,-30.273,-57.129,-7.324,-225.098
1738232367.816,0.977,-36.621,-59.570,-21.484,-156.738
1738232367.820,2.441,-37.598,-61.523,-29.785,-131.348
1738232367.824,-5.371,-36.621,-62.988,-19.043,1.465
1738232367.827,0.488,-33.691,-62.988,-12.207,237.793
1738232367.831,3.906,-33.203,-62.500,-3.906,99.121
1738232367.835,11.230,-41.504,-62.988,15.625,-256.836
1738232367.839,7.324,-44.922,-62.012,19.531,-238.770
1738232367.843,7.324,-41.504,-62.988,21.484,108.887
1738232367.875,7.812,-43.457,-59.570,39.062,-48.340
1738232367.879,11.230,-42.480,-58.594,37.109,-290.527
1738232367.883,0.977,-43.945,-62.012,1.953,-228.027
1738232367.887,-1.465,-50.293,-69.336,3.418,329.590
1738232367.891,-4.395,-46.387,-68.359,15.137,468.262
1738232367.895,-20.508,-41.504,-62.500,9.277,-16.113
1738232367.899,-5.371,-38.574,-58.594,0.488,83.008
1738232367.902,5.371,-38.086,-63.477,-11.719,348.145
1738232367.906,-4.395,-36.621,-64.941,-18.555,2.441
1738232367.910,-16.113,-36.133,-60.059,-27.344,-264.648
1738232367.914,-16.602,-33.691,-59.082,-26.367,-69.336
1738232367.918,-27.344,-35.645,-60.059,-20.508,72.754
1738232367.936,-44.434,-41.992,-59.570,-36.621,-297.852
1738232367.940,-25.879,-40.527,-59.570,-41.016,-355.957
1738232367.944,-25.879,-38.574,-65.430,-27.344,-46.387
1738232367.948,-44.434,-41.016,-59.082,-29.297,-97.168
1738232367.952,-24.414,-44.922,-58.105,-35.645,-295.410
1738232367.956,-19.531,-46.387,-69.824,-34.668,-247.070
1738232367.960,-29.785,-43.457,-70.312,-23.438,244.141
1738232367.963,-40.527,-45.898,-60.059,-31.250,318.848
1738232367.967,-32.715,-45.898,-53.711,-39.062,-155.273
1738232367.971,-17.090,-44.922,-59.570,-26.855,-251.953
1738232367.975,-23.926,-41.992,-62.012,-19.043,-40.039
1738232367.979,-30.762,-41.992,-52.246,-16.113,-2.930
1738232368.024,-46.875,-43.945,-43.457,-18.555,-219.238
1738232368.028,-57.129,-44.922,-47.852,-43.945,-193.359
1738232368.032,-41.992,-39.551,-55.664,-54.199,332.520
1738232368.036,-22.461,-30.762,-49.316,-41.992,218.750
1738232368.040,-29.297,-33.203,-49.316,-34.668,-256.348
1738232368.044,-44.434,-41.504,-58.105,-37.109,2.441
1738232368.048,-66.406,-44.922,-59.570,-57.617,94.727
1738232368.051,-62.988,-41.992,-59.082,-62.500,-184.082
1738232368.055,-36.621,-37.109,-61.523,-62.988,-295.898
1738232368.059,-44.434,-33.691,-61.035,-59.570,-191.406
1738232368.063,-34.668,-39.062,-58.594,-30.762,-126.953
1738232368.067,-46.387,-41.992,-59.570,-44.922,-224.121
1738232368.029,-50.781,-37.109,-60.547,-45.898,-196.289
1738232368.033,-48.340,-36.621,-62.012,-57.617,75.195
1738232368.037,-59.570,-38.086,-62.500,-55.176,9.766
1738232368.041,-43.945,-30.273,-62.500,-29.297,-253.418
1738232368.045,-24.414,-30.273,-66.406,-41.504,-188.477
1738232368.049,-28.320,-33.203,-71.777,-29.785,229.492
1738232368.053,-51.270,-35.156,-65.918,-32.227,228.516
1738232368.056,-39.551,-37.109,-62.500,-30.762,-93.262
1738232368.060,-28.320,-33.203,-66.406,-28.809,-104.004
1738232368.064,-35.156,-32.227,-68.359,-36.133,24.414
1738232368.068,-46.387,-36.621,-60.059,-32.715,-113.770
1738232368.072,-43.945,-34.180,-52.734,-31.738,-266.602
1738232368.043,-28.809,-30.273,-50.781,-30.273,-176.758
1738232368.047,-26.367,-33.691,-45.898,-23.438,-20.020
1738232368.051,-36.621,-33.691,-46.387,-21.973,-166.504
1738232368.055,-33.691,-33.203,-51.270,-40.039,-248.047
1738232368.059,-31.250,-33.203,-51.270,-43.945,-20.508
1738232368.063,-37.598,-36.133,-45.410,-11.719,149.414
1738232368.067,-41.992,-41.504,-47.852,-20.508,-1.953
1738232368.070,-33.203,-41.992,-56.152,-31.738,-175.781
1738232368.074,-22.461,-36.133,-62.012,-24.902,-97.656
1738232368.078,-20.020,-29.297,-62.500,-25.391,-11.230
1738232368.082,-18.066,-31.250,-62.500,-22.949,-144.531
1738232368.086,-26.367,-35.156,-61.523,-22.461,-224.121
1738232368.085,-29.785,-30.273,-59.082,-34.180,26.367
1738232368.089,-13.672,-31.250,-58.105,-39.062,626.953
1738232368.093,-19.043,-41.504,-41.992,-45.898,436.523
1738232368.097,-32.715,-44.922,-34.668,-36.621,-188.965
1738232368.101,-40.527,-43.457,-42.969,-1.465,73.242
1738232368.105,-33.203,-38.086,-50.293,-16.602,650.879
1738232368.109,-42.969,-39.062,-52.246,-41.504,317.871
1738232368.112,-43.945,-39.551,-47.363,-37.598,-71.289
1738232368.116,-29.785,-38.574,-54.199,-30.273,402.832
1738232368.120,-22.949,-39.551,-62.988,-22.461,711.914
1738232368.124,-33.691,-40.527,-60.547,-14.648,284.180
1738232368.128,-15.137,-39.551,-67.871,-27.832,-210.938
1738232368.176,-4.883,-31.738,-69.824,-4.883,-156.250
1738232368.180,-24.902,-37.598,-52.246,12.207,-290.527
1738232368.184,-39.062,-47.363,-46.875,-20.020,-412.598
1738232368.188,-57.617,-48.828,-43.457,-38.086,-307.617
1738232368.192,-60.059,-44.434,-38.086,-49.805,-224.609
1738232368.196,-40.039,-35.156,-38.574,-43.945,-74.219
1738232368.200,-39.551,-37.109,-33.691,-29.785,-74.219
1738232368.203,-48.828,-47.363,-27.832,-49.316,-132.812
1738232368.207,-81.055,-58.105,-29.297,-59.570,384.766
1738232368.211,-121.094,-54.199,-39.062,-63.477,191.895
1738232368.215,-58.594,-49.316,-34.668,-67.871,-310.547
1738232368.219,-24.414,-54.688,-23.438,-50.781,-178.223
1738232368.205,-51.270,-52.734,-23.926,-38.086,-143.066
1738232368.209,-29.297,-50.781,-28.809,-38.574,-272.949
1738232368.213,-22.461,-46.875,-34.180,-37.598,-268.555
1738232368.217,-44.434,-46.875,-41.992,-42.969,-19.531
1738232368.224,-23.438,-38.574,-24.902,-27.832,-115.234
1738232368.228,-41.016,-38.086,-29.785,-35.645,-262.695
1738232368.232,-39.062,-43.457,-33.691,-21.973,-174.805
1738232368.236,-34.180,-44.434,-33.203,-22.949,-58.105
1738232368.240,-32.227,-45.410,-39.551,-31.250,-89.844
1738232368.244,-38.086,-49.805,-51.758,-31.738,-112.793
1738232368.248,-39.551,-46.387,-47.852,-26.367,81.055
1738232368.251,-21.484,-41.992,-41.992,-20.020,506.836
1738232368.255,-13.184,-40.527,-41.504,-27.344,150.391
1738232368.259,-23.926,-38.574,-40.039,-25.391,-294.434
1738232368.263,-15.137,-41.016,-41.016,-28.809,-8.789
1738232368.267,-31.738,-40.039,-41.504,-42.480,259.766
1738232368.266,-28.320,-30.273,-32.715,-34.180,-73.730
1738232368.270,-13.672,-33.203,-31.250,-31.738,-230.469
1738232368.274,-30.273,-42.480,-38.574,-38.574,247.559
1738232368.278,-25.879,-37.109,-38.086,-31.250,418.945
1738232368.282,-38.086,-33.691,-37.598,-35.156,-115.723
1738232368.286,-38.086,-39.551,-48.340,-49.316,-218.750
1738232368.290,-29.785,-39.062,-53.711,-45.898,252.441
1738232368.293,-43.457,-40.527,-52.734,-34.668,705.078
1738232368.297,-44.434,-39.062,-43.945,-30.762,417.969
1738232368.301,-36.621,-30.762,-35.156,-30.273,-208.496
1738232368.305,-45.410,-33.203,-38.574,-23.438,-314.941
1738232368.309,-40.039,-41.016,-28.320,-20.508,-330.078
1738232368.356,-32.227,-39.062,-14.648,-23.438,-403.320
1738232368.360,-34.668,-30.762,-23.438,-32.227,-348.633
1738232368.364,-43.457,-31.738,-37.109,-34.180,-240.234
1738232368.368,-60.059,-39.551,-42.969,-64.453,-245.117
1738232368.372,-48.828,-39.551,-54.199,-82.031,-223.145
1738232368.376,-13.672,-36.621,-59.082,-61.035,-104.980
1738232368.380,-11.230,-36.133,-62.012,-33.691,338.379
1738232368.383,-35.645,-39.062,-61.035,-32.227,92.285
1738232368.387,-46.387,-36.133,-65.430,-54.199,-357.422
1738232368.391,-31.250,-33.691,-64.941,-54.199,-229.980
1738232368.395,-25.391,-36.133,-61.035,-36.621,-202.637
1738232368.399,-33.203,-37.598,-68.848,-37.598,-294.922
1738232368.400,-15.625,-34.668,-68.359,-52.246,-272.461
1738232368.404,-33.691,-33.203,-65.430,-60.547,-155.762
1738232368.408,-62.012,-35.645,-66.895,-59.570,-174.805
1738232368.412,-74.707,-36.621,-69.336,-60.547,-273.926
1738232368.416,-51.758,-33.691,-71.289,-52.734,-175.293
1738232368.420,-35.645,-36.133,-75.684,-45.898,102.051
1738232368.424,-62.988,-39.062,-79.590,-58.594,100.586
1738232368.427,-63.477,-31.250,-78.613,-86.914,-18.555
1738232368.431,-39.551,-29.785,-77.148,-68.848,51.758
1738232368.435,-44.922,-34.668,-77.637,-54.199,101.562
1738232368.439,-30.762,-44.922,-71.777,-45.410,-76.172
1738232368.443,-16.113,-43.457,-64.941,-16.602,-191.406
1738232368.465,-40.039,-20.996,-70.312,-53.223,-85.449
1738232368.469,-71.289,-17.578,-66.895,-80.078,265.137
1738232368.473,-86.426,-26.367,-61.035,-75.195,36.133
1738232368.477,-88.379,-26.367,-61.035,-81.543,-252.441
1738232368.481,-106.934,-20.996,-75.684,-97.656,-70.312
1738232368.485,-114.258,-20.020,-88.867,-123.047,579.102
1738232368.489,-86.426,-19.043,-84.961,-113.281,392.090
1738232368.492,-85.938,-18.555,-84.961,-95.703,-187.988
1738232368.496,-108.398,-19.043,-87.891,-109.863,-60.547
1738232368.500,-119.141,-24.414,-95.215,-115.723,89.355
1738232368.504,-130.859,-33.203,-104.492,-111.816,-121.094
1738232368.508,-104.004,-35.156,-102.539,-87.402,-262.207
1738232368.470,-53.711,-30.273,-100.586,-54.199,-19.531
1738232368.474,-66.406,-23.926,-97.168,-33.203,201.172
1738232368.478,-87.402,-20.996,-98.633,-49.316,-136.230
1738232368.482,-75.195,-24.902,-106.445,-70.312,-289.551
1738232368.486,-54.688,-28.809,-104.980,-90.332,109.375
1738232368.490,-39.551,-32.715,-91.797,-73.730,157.715
1738232368.494,-40.527,-33.691,-88.867,-41.016,-81.543
1738232368.497,-50.781,-34.180,-93.262,-36.621,14.160
1738232368.501,-74.219,-39.062,-89.844,-43.457,196.289
1738232368.505,-64.941,-39.551,-87.891,-53.223,-41.504
1738232368.509,-46.875,-40.527,-90.332,-50.293,-302.246
1738232368.513,-28.320,-40.527,-91.797,-32.715,-92.285
1738232368.566,-37.598,-44.434,-93.262,-43.457,105.957
1738232368.570,-59.082,-47.363,-94.238,-58.594,-120.605
1738232368.574,-54.688,-46.875,-94.238,-62.012,-261.719
1738232368.578,-47.363,-52.246,-88.867,-48.828,-166.504
1738232368.582,-45.898,-51.758,-86.426,-36.133,-25.391
1738232368.586,-41.992,-51.270,-80.566,-38.574,-3.418
1738232368.590,-66.406,-54.688,-77.637,-44.922,-60.059
1738232368.593,-70.312,-49.316,-81.055,-53.223,-37.598
1738232368.597,-32.715,-52.246,-82.520,-33.203,505.371
1738232368.601,-20.020,-51.758,-78.613,-10.742,724.121
1738232368.605,-21.484,-52.734,-72.754,-20.996,622.070
1738232368.609,-39.551,-63.477,-72.754,-27.344,202.637
1738232368.581,-47.852,-61.523,-83.496,-28.320,-320.312
1738232368.585,-43.457,-57.617,-77.148,-40.039,-312.012
1738232368.589,-43.457,-58.105,-67.383,-40.527,-150.879
1738232368.593,-37.598,-47.363,-74.707,-31.738,50.781
1738232368.597,-59.570,-45.410,-77.637,-29.297,65.430
1738232368.601,-56.152,-57.617,-74.219,-25.391,-145.996
1738232368.605,1.953,-58.594,-72.754,-19.043,-91.309
1738232368.608,24.902,-43.945,-80.078,-26.367,136.230
1738232368.612,-14.648,-31.738,-80.566,-57.129,-92.773
1738232368.616,-46.875,-35.645,-83.496,-78.125,-367.188
1738232368.620,-45.898,-42.969,-90.332,-62.988,-295.898
1738232368.624,-41.504,-41.992,-88.379,-67.383,-96.191
1738232368.612,-27.344,-40.527,-88.379,-62.012,-196.289
1738232368.616,-23.926,-33.691,-91.797,-64.453,-277.832
1738232368.620,-31.738,-31.738,-92.285,-75.684,-184.570
1738232368.624,-42.969,-34.668,-94.727,-73.242,-84.961
1738232368.628,-48.828,-30.762,-94.238,-75.684,-92.285
1738232368.632,-40.527,-27.344,-89.844,-74.219,-80.566
1738232368.636,-35.645,-24.902,-91.309,-58.105,45.898
1738232368.639,-39.551,-24.414,-90.332,-53.223,74.707
1738232368.643,-52.734,-32.227,-88.379,-62.988,-145.020
1738232368.647,-51.270,-37.109,-84.961,-57.617,-256.836
1738232368.651,-22.461,-34.180,-83.496,-23.926,-102.539
1738232368.655,-11.230,-32.227,-90.332,-26.855,499.512
1738232368.640,-25.879,-36.621,-89.844,-52.246,584.473
1738232368.644,-40.527,-33.691,-81.055,-61.035,-140.137
1738232368.648,-31.738,-26.855,-83.008,-58.105,-72.266
1738232368.652,-24.902,-32.715,-81.055,-43.457,240.723
1738232368.656,-41.016,-35.645,-80.078,-47.852,-150.391
1738232368.660,-13.184,-37.598,-84.961,-38.086,-127.441
1738232368.664,-7.324,-37.598,-84.961,-40.039,299.805
1738232368.667,-32.227,-38.086,-79.102,-52.734,123.047
1738232368.671,-29.785,-40.527,-67.383,-44.922,-261.719
1738232368.675,-34.180,-38.086,-62.012,-46.387,-341.797
1738232368.679,-12.695,-40.527,-63.965,-25.879,123.047
1738232368.683,-6.348,-40.039,-64.453,-16.602,476.074
1738232368.747,-19.043,-45.410,-60.059,-40.527,-124.512
1738232368.751,-14.160,-51.758,-58.105,-35.645,-343.262
1738232368.755,-10.742,-50.293,-52.734,-3.418,-84.473
1738232368.759,-20.508,-47.852,-49.805,-32.227,-204.102
1738232368.763,-40.527,-40.527,-53.223,-41.504,-302.734
1738232368.767,-51.270,-40.039,-55.664,-41.016,-95.703
1738232368.771,-41.992,-39.551,-48.340,-51.270,173.340
1738232368.774,-26.855,-37.109,-30.273,-45.410,-104.492
1738232368.778,-43.945,-43.457,-14.648,-52.246,-365.723
1738232368.782,-51.270,-47.363,-11.719,-58.105,-94.727
1738232368.786,-42.480,-46.387,-11.719,-56.152,204.102
1738232368.790,-54.688,-46.387,-0.977,-59.082,-154.297
1738232368.835,-45.410,-45.898,4.883,-55.664,-291.504
1738232368.839,-39.062,-51.758,-4.395,-46.387,-136.230
1738232368.843,-33.691,-45.410,-10.254,-55.664,-87.891
1738232368.847,-31.738,-35.645,1.465,-55.664,-216.309
1738232368.851,-42.969,-43.945,9.277,-42.480,-273.926
1738232368.855,-46.875,-50.293,1.953,-51.270,44.434
1738232368.859,-21.484,-46.387,10.254,-40.527,81.055
1738232368.862,-15.137,-41.992,12.207,-37.109,-84.961
1738232368.866,-19.531,-44.434,5.371,-43.945,-71.289
1738232368.870,-4.395,-47.363,8.789,-47.363,-1.465
1738232368.874,-31.250,-39.551,29.297,-70.801,-168.457
1738232368.878,-31.250,-34.180,42.969,-38.086,-258.301
1738232368.868,16.602,-28.809,30.762,-3.906,8.301
1738232368.872,0.977,-29.297,18.066,-27.832,61.523
1738232368.876,-40.527,-29.785,0.977,-52.246,-201.172
1738232368.880,-43.945,-37.598,-14.648,-73.242,-269.531
1738232368.884,-47.852,-41.504,-24.902,-58.594,-126.953
1738232368.888,-52.734,-41.992,-23.926,-28.320,46.387
1738232368.892,-55.176,-46.387,-22.949,-31.250,23.926
1738232368.895,-41.016,-42.480,-30.762,-38.086,-141.113
1738232368.899,-32.715,-39.551,-37.598,-25.879,1.953
1738232368.903,-40.039,-38.574,-39.551,-39.062,357.422
1738232368.907,-35.645,-41.016,-35.645,-41.016,41.504
1738232368.911,-15.625,-40.039,-41.504,-37.598,-145.996
1738232368.898,-11.230,-41.992,-43.945,-27.344,12.207
1738232368.902,-23.926,-44.922,-34.668,-26.367,8.789
1738232368.906,-22.949,-45.410,-30.762,-43.945,34.180
1738232368.910,-9.766,-42.480,-34.180,-36.133,-38.574
1738232368.914,-2.441,-41.504,-45.898,-34.668,197.754
1738232368.918,-38.086,-51.270,-54.688,-61.523,764.648
1738232368.922,-49.805,-57.129,-48.828,-71.289,386.719
1738232368.925,-37.598,-51.758,-46.387,-62.500,-13.672
1738232368.929,-24.902,-42.480,-51.270,-40.527,103.516
1738232368.933,-18.066,-41.016,-47.852,-26.855,-69.336
1738232368.937,-23.926,-42.480,-56.641,-46.875,-271.973
1738232368.941,-20.508,-41.016,-58.105,-56.641,-187.500
1738232368.903,-20.020,-44.434,-46.387,-42.480,18.066
1738232368.907,-34.668,-48.340,-44.434,-26.855,-100.098
1738232368.911,-29.785,-47.363,-54.688,-26.855,-199.219
1738232368.915,-33.691,-45.898,-67.383,-51.758,-136.230
1738232368.919,-45.898,-46.875,-68.359,-65.918,-68.848
1738232368.923,-14.648,-49.316,-63.477,-39.551,-52.246
1738232368.927,-26.855,-57.129,-61.035,-26.855,-75.195
1738232368.930,-47.363,-52.734,-62.500,-45.410,60.547
1738232368.934,-30.762,-45.410,-72.266,-43.945,418.457
1738232368.938,-42.969,-48.828,-63.965,-51.270,38.574
1738232368.942,-51.270,-49.805,-62.988,-60.547,-279.297
1738232368.946,-28.809,-48.828,-71.777,-30.273,-8.301
1738232368.924,-26.367,-55.664,-66.406,-31.250,74.707
1738232368.928,-25.391,-48.340,-76.172,-34.668,-157.227
1738232368.932,-38.086,-43.457,-74.219,-40.039,-293.457
1738232368.936,-57.617,-43.945,-70.801,-48.828,-28.320
1738232368.940,-30.762,-33.691,-77.637,-25.391,565.918
1738232368.944,-38.574,-20.508,-72.754,-31.250,393.066
1738232368.948,-36.621,-34.668,-71.289,-33.691,15.137
1738232368.951,-12.207,-45.410,-79.102,-20.996,135.254
1738232368.955,-16.602,-37.598,-83.496,-33.203,35.156
1738232368.959,-31.250,-40.039,-79.590,-47.363,-206.055
1738232368.963,-25.879,-46.387,-77.148,-21.484,-230.957
1738232368.967,-7.324,-50.293,-83.496,-0.977,218.750
1738232369.001,-29.785,-46.875,-89.355,-17.090,521.484
1738232369.005,-35.645,-47.363,-83.984,-9.277,536.133
1738232369.009,-12.207,-52.246,-68.848,6.836,425.781
1738232369.013,-11.719,-41.992,-64.941,0.000,-145.996
1738232369.017,-4.883,-34.180,-70.801,-0.488,-347.168
1738232369.021,-12.207,-38.086,-74.707,-23.438,-250.977
1738232369.025,-23.926,-40.039,-73.242,-31.738,-57.129
1738232369.028,-8.789,-40.039,-77.148,-22.949,226.074
1738232369.032,3.418,-43.457,-74.707,-14.160,-114.258
1738232369.036,-21.973,-44.922,-75.195,-5.859,-339.844
1738232369.040,-38.574,-49.805,-79.102,-9.277,-125.977
1738232369.044,-24.414,-47.852,-76.172,-11.719,-133.789
1738232369.046,-19.043,-35.156,-70.801,-3.906,-302.734
1738232369.050,-18.066,-37.598,-74.707,4.883,-299.805
1738232369.054,-12.695,-39.551,-87.891,0.488,-77.637
1738232369.058,-5.371,-32.715,-91.309,8.301,-102.539
1738232369.062,-10.742,-34.668,-83.984,-2.930,-325.684
1738232369.066,-31.250,-44.922,-68.359,-15.137,-238.281
1738232369.070,-32.715,-45.898,-57.617,-12.207,42.969
1738232369.073,-37.598,-45.898,-60.059,-26.855,49.805
1738232369.077,-52.734,-55.664,-61.523,-34.668,-164.551
1738232369.081,-38.574,-58.594,-62.988,-27.344,-208.008
1738232369.085,-27.832,-57.617,-64.453,-6.836,124.023
1738232369.089,-22.461,-55.664,-49.316,-1.465,57.617
1738232369.092,-9.277,-46.387,-43.945,-3.418,-60.547
1738232369.096,-21.484,-40.527,-47.852,-21.484,-96.191
1738232369.100,-31.738,-40.527,-44.434,-33.691,311.035
1738232369.104,-12.695,-37.109,-36.133,-15.137,384.766
1738232369.108,-15.137,-34.180,-31.250,-2.441,-130.371
1738232369.112,-28.809,-38.574,-33.691,-2.441,20.020
1738232369.116,-21.484,-46.387,-39.551,0.488,129.395
1738232369.119,-16.602,-38.574,-46.875,-15.625,-163.574
1738232369.123,-13.184,-29.297,-46.387,-35.156,-290.039
1738232369.127,-29.297,-36.133,-45.898,-24.902,-160.156
1738232369.131,-22.461,-35.156,-35.645,-16.602,-88.379
1738232369.135,0.488,-27.344,-30.762,-7.324,-165.039
1738232369.134,-14.648,-32.227,-48.828,-17.090,-278.809
1738232369.138,-40.527,-40.039,-63.477,-36.133,-48.828
1738232369.142,-35.645,-38.574,-54.199,-35.156,339.355
1738232369.146,-32.227,-32.715,-46.387,-37.109,3.418
1738232369.150,-20.996,-32.227,-50.293,-28.320,-192.383
1738232369.154,-38.086,-31.738,-59.570,-35.156,194.336
1738232369.158,-57.129,-26.367,-55.176,-42.480,188.477
1738232369.161,-31.738,-20.508,-41.992,-34.180,-149.902
1738232369.165,-36.621,-24.414,-42.480,-30.762,-133.789
1738232369.169,-27.832,-24.414,-48.828,-43.457,91.797
1738232369.173,-13.184,-20.020,-52.734,-53.711,-72.266
1738232369.177,-23.438,-20.996,-52.734,-46.387,-299.316
1738232369.212,-27.344,-23.438,-52.734,-47.852,-269.531
1738232369.216,-1.953,-23.926,-55.664,-36.133,295.410
1738232369.220,-15.625,-28.320,-49.316,-12.207,590.332
1738232369.224,-21.484,-34.668,-43.945,-23.438,-42.480
1738232369.228,-19.531,-31.738,-48.828,-33.203,-261.230
1738232369.232,-41.992,-31.738,-47.363,-25.879,-57.617
1738232369.236,-62.988,-30.762,-44.922,-42.480,7.812
1738232369.239,-24.902,-24.414,-46.875,-31.738,-70.312
1738232369.243,9.766,-22.461,-49.316,-11.719,-106.445
1738232369.247,-20.020,-26.855,-48.340,-32.227,-120.605
1738232369.251,-21.484,-27.832,-49.316,-40.039,-239.258
1738232369.255,-26.855,-28.320,-48.340,-51.758,-303.223
1738232369.216,-48.340,-31.250,-52.734,-46.387,-24.414
1738232369.220,-62.988,-32.715,-54.688,-9.766,480.469
1738232369.224,-14.160,-30.273,-46.387,-16.602,56.641
1738232369.228,-14.648,-33.203,-44.434,-24.414,-313.477
1738232369.257,6.348,-28.809,-43.457,-48.828,-30.273
1738232369.261,-3.418,-37.109,-39.062,-42.969,-181.152
1738232369.265,-19.531,-38.086,-25.879,-18.555,-315.918
1738232369.269,-0.977,-41.504,-11.230,6.348,-204.102
1738232369.273,5.859,-29.297,-16.602,7.324,-23.438
1738232369.277,-48.828,-21.973,-46.387,-44.922,-31.738
1738232369.281,-131.348,-25.879,-46.387,-128.418,-53.711
1738232369.284,-135.254,-10.254,-36.133,-157.715,-28.320
1738232369.288,-122.070,12.207,-27.832,-95.215,409.180
1738232369.292,-151.367,24.902,-25.391,-89.844,734.375
1738232369.296,-171.387,45.410,-20.996,-131.348,559.082
1738232369.300,-183.594,69.824,-28.809,-187.988,-12.207
1738232369.300,-196.777,85.449,-32.715,-216.309,-265.137
1738232369.304,-221.191,96.680,-35.156,-212.891,-290.039
1738232369.308,-245.117,106.934,-42.969,-258.301,-294.434
1738232369.312,-283.691,116.699,-41.016,-300.293,-75.684
1738232369.316,-294.434,125.977,-36.133,-312.988,-121.094
1738232369.320,-276.367,130.371,-42.480,-334.473,-180.176
1738232369.324,-247.559,125.488,-50.293,-309.082,-65.430
1738232369.327,-241.699,118.164,-54.688,-282.715,391.602
1738232369.331,-242.188,102.539,-45.898,-291.504,413.574
1738232369.335,-253.418,69.824,-59.082,-321.289,-274.414
1738232369.339,-241.699,53.223,-70.801,-315.918,-369.629
1738232369.343,-186.035,36.133,-62.012,-255.859,98.633
1738232369.363,-211.426,7.812,-71.289,-252.441,64.941
1738232369.367,-187.988,9.277,-80.078,-232.422,-247.070
1738232369.371,-162.598,0.488,-92.285,-222.656,-242.676
1738232369.375,-168.457,-17.090,-93.750,-237.793,-149.414
1738232369.379,-135.742,-34.180,-90.332,-180.176,-244.141
1738232369.383,-149.902,-58.594,-98.145,-163.574,-195.312
1738232369.387,-116.211,-72.754,-96.680,-145.508,67.383
1738232369.390,-104.492,-87.891,-94.727,-145.508,317.871
1738232369.394,-108.887,-96.191,-92.285,-141.113,-83.496
1738232369.398,-81.055,-100.098,-85.938,-102.539,-328.125
1738232369.402,-77.148,-109.375,-84.473,-82.520,-153.320
1738232369.406,-56.641,-115.234,-87.402,-41.016,-97.656
1738232369.390,-67.871,-123.535,-93.750,-68.848,-197.754
1738232369.394,-61.523,-133.301,-101.562,-72.266,-363.770
1738232369.398,-32.715,-144.531,-96.680,-36.621,-174.316
1738232369.402,-20.996,-155.273,-84.473,-29.785,78.613
1738232369.406,-1.953,-161.133,-79.102,-17.090,-15.137
1738232369.410,11.230,-162.598,-87.891,-27.832,-10.742
1738232369.414,8.789,-165.527,-89.844,-34.180,122.559
1738232369.417,8.301,-166.504,-69.824,6.348,-33.691
1738232369.421,30.762,-166.992,-53.711,30.273,-179.199
1738232369.425,35.645,-163.086,-50.293,21.973,-108.398
1738232369.429,20.508,-155.762,-47.852,5.371,365.723
1738232369.433,26.855,-145.508,-44.434,-9.766,559.570
1738232369.450,11.719,-142.090,-25.879,1.465,-98.145
1738232369.454,3.418,-138.184,-18.555,45.410,-245.605
1738232369.458,13.184,-127.930,-24.902,44.434,141.602
1738232369.462,28.320,-117.188,-16.113,18.555,-6.836
1738232369.466,60.059,-110.840,-7.324,9.277,-365.234
1738232369.470,59.082,-104.492,-1.465,12.695,-293.457
1738232369.474,21.973,-102.539,-2.930,38.086,108.398
1738232369.477,-0.977,-94.727,-8.789,55.176,137.695
1738232369.481,23.438,-82.520,-14.648,42.969,-134.277
1738232369.485,33.691,-77.148,-21.973,5.371,-171.387
1738232369.489,26.855,-72.266,-23.926,-10.254,131.348
1738232369.493,26.855,-65.918,-10.742,5.371,-130.859
1738232369.495,31.250,-65.430,-7.324,24.902,-204.590
1738232369.499,39.551,-62.988,-19.043,23.438,21.973
1738232369.503,46.387,-54.199,-21.973,-9.766,-147.949
1738232369.507,22.461,-46.875,-14.160,-25.391,-428.223
1738232369.511,8.789,-46.387,-9.277,0.977,-288.086
1738232369.515,25.391,-44.922,-7.324,31.738,241.211
1738232369.519,16.602,-43.457,-12.695,20.508,292.480
1738232369.522,21.484,-41.992,-19.043,-10.254,10.742
1738232369.526,1.953,-37.598,-22.461,-29.785,-177.246
1738232369.530,-14.160,-39.551,-25.879,-2.930,196.777
1738232369.534,-31.250,-37.598,-25.879,17.578,565.430
1738232369.538,-41.504,-35.156,-24.414,-2.441,112.305
1738232369.541,-7.324,-32.715,-28.809,-12.207,-149.902
1738232369.545,-12.207,-28.809,-25.391,-43.457,-265.137
1738232369.549,-35.156,-28.809,-16.113,-34.180,-345.703
1738232369.553,-16.602,-26.367,-13.184,9.277,-215.332
1738232369.557,-16.113,-22.461,-9.277,18.066,-33.691
1738232369.561,-24.414,-14.648,-20.508,-8.789,116.699
1738232369.565,-10.742,-15.625,-23.926,-42.969,-47.363
1738232369.568,3.418,-12.207,-14.648,-20.020,-334.473
1738232369.572,5.859,-7.324,-17.090,22.949,-78.125
1738232369.576,-10.254,-16.602,-21.484,28.320,503.418
1738232369.580,-33.203,-15.625,-23.926,-3.906,298.828
1738232369.584,-37.598,-5.371,-34.180,-79.590,-187.012
1738232369.585,-31.738,-2.441,-27.832,-77.637,-269.043
1738232369.589,-61.523,-3.418,-20.508,-63.477,-109.863
1738232369.593,-79.590,-3.906,-26.367,-60.547,-61.523
1738232369.597,-66.895,-5.859,-30.273,-59.082,-47.852
1738232369.601,-60.059,-6.836,-36.133,-87.402,-52.246
1738232369.605,-62.988,-1.953,-32.227,-78.613,-204.590
1738232369.609,-61.523,0.977,-29.297,-68.848,-106.934
1738232369.612,-86.914,-3.418,-39.062,-45.410,135.254
1738232369.616,-83.008,-0.488,-48.828,-32.715,474.121
1738232369.620,-53.711,2.930,-57.129,-74.707,541.016
1738232369.624,-62.988,0.000,-57.129,-96.191,-233.398
1738232369.628,-59.570,-2.930,-51.758,-35.645,-364.746
1738232369.632,-33.203,-9.277,-60.059,-22.461,-22.949
1738232369.636,-32.715,-10.254,-68.848,-41.992,43.457
1738232369.640,-43.457,-5.859,-65.430,-59.082,-139.160
1738232369.644,-58.105,-10.254,-62.988,-72.266,-319.824
1738232369.648,-71.777,-11.719,-67.383,-35.156,-62.500
1738232369.652,-47.363,-7.324,-64.941,-2.441,84.473
1738232369.656,-24.414,-7.324,-48.340,-4.395,24.902
1738232369.659,-31.250,-6.348,-52.246,-40.039,84.961
1738232369.663,-20.508,-17.090,-51.270,-69.824,213.867
1738232369.667,-18.066,-21.973,-36.621,-45.410,-150.879
1738232369.671,-41.992,-22.461,-41.992,-8.301,-237.305
1738232369.675,-40.527,-18.066,-50.781,10.254,10.742
1738232369.675,-20.508,-10.742,-55.176,-15.137,-49.805
1738232369.679,-4.883,-17.578,-54.688,-59.570,-362.305
1738232369.683,-11.719,-20.508,-49.316,-43.945,-409.180
1738232369.687,-33.203,-19.531,-49.805,-15.625,32.715
1738232369.691,-32.715,-21.484,-53.223,-7.812,165.527
1738232369.695,-51.758,-16.113,-50.781,-16.113,102.051
1738232369.699,-36.133,-12.207,-45.410,-26.855,0.977
1738232369.702,-25.879,-15.625,-51.758,-37.598,229.004
1738232369.706,-43.457,-20.020,-56.641,-16.113,610.840
1738232369.710,-27.832,-20.508,-43.945,12.695,175.293
1738232369.714,-13.184,-21.973,-40.039,5.859,-91.309
1738232369.718,-17.578,-24.902,-42.480,-21.973,-135.254
1738232369.721,-31.738,-26.367,-47.852,-51.758,-408.691
1738232369.725,-24.902,-26.855,-53.223,-23.926,-349.121
1738232369.729,-9.766,-27.344,-49.316,8.789,-86.914
1738232369.733,-18.555,-25.879,-36.621,13.672,10.254
1738232369.737,-21.973,-23.926,-33.203,-26.367,-159.180
1738232369.741,-36.133,-29.785,-33.203,-46.875,-250.000
1738232369.745,-44.434,-27.832,-22.461,-10.254,27.344
1738232369.748,-27.344,-21.484,-22.461,5.859,688.965
1738232369.752,-21.484,-20.020,-24.902,12.207,408.203
1738232369.756,-5.859,-21.484,-29.297,-15.625,-208.008
1738232369.760,0.488,-22.461,-29.297,-56.641,-331.055
1738232369.764,-32.715,-22.949,-26.855,-34.180,-302.246
1738232369.764,-12.695,-23.926,-36.621,0.488,-157.715
1738232369.768,13.672,-22.461,-41.016,24.902,-51.758
1738232369.772,-24.414,-22.461,-48.828,-1.953,-17.090
1738232369.776,-51.758,-24.414,-52.246,-48.828,-248.047
1738232369.780,-37.598,-25.879,-45.410,-15.625,-385.742
1738232369.784,-30.762,-27.344,-50.293,15.625,-106.934
1738232369.788,-27.344,-26.855,-57.617,7.812,561.035
1738232369.791,-7.812,-22.949,-65.918,-20.020,931.152
1738232369.795,-5.371,-20.508,-66.406,-62.988,107.910
1738232369.799,-21.484,-18.066,-53.223,-43.457,-330.566
1738232369.803,-35.645,-20.020,-48.828,2.930,125.977
1738232369.807,-30.273,-17.578,-49.805,6.836,62.500
1738232369.825,-18.555,-12.695,-54.688,-12.207,-167.480
1738232369.829,4.883,-20.020,-63.477,-48.340,-290.039
1738232369.833,-0.488,-32.227,-59.082,-29.785,-371.094
1738232369.837,-32.227,-23.438,-47.852,20.020,-228.516
1738232369.841,-45.410,-22.461,-52.246,26.855,-146.484
1738232369.845,-30.762,-29.785,-62.012,9.766,91.797
1738232369.849,-0.488,-30.273,-61.523,-17.090,223.633
1738232369.852,9.766,-26.367,-60.059,-34.180,-261.719
1738232369.856,-33.203,-23.438,-52.734,-6.836,-322.754
1738232369.860,-51.270,-25.879,-47.852,4.395,20.508
1738232369.864,-57.129,-29.297,-41.992,-9.766,177.734
1738232369.868,-43.457,-24.414,-38.086,-19.043,-4.883
1738232369.871,-30.762,-30.762,-49.805,-49.805,-353.027
1738232369.875,-43.457,-41.504,-52.246,-29.785,-161.133
1738232369.879,-41.016,-41.016,-44.434,-2.930,80.566
1738232369.883,-33.203,-34.668,-46.875,-8.789,-31.250
1738232369.887,-28.809,-18.066,-40.527,-27.344,-107.422
1738232369.891,-35.645,-21.973,-39.551,-50.293,80.078
1738232369.895,-26.855,-25.391,-40.527,-26.367,115.234
1738232369.898,-9.766,-16.113,-35.156,15.137,-38.086
1738232369.902,-5.859,-21.484,-30.762,6.348,-17.578
1738232369.906,-27.832,-25.391,-45.410,-44.434,342.285
1738232369.910,-23.438,-21.484,-48.340,-69.824,166.016
1738232369.914,19.043,-19.043,-38.086,-42.969,-344.238
1738232369.917,6.836,-22.949,-38.574,-8.301,-126.465
1738232369.921,-32.227,-29.785,-42.480,-5.859,230.469
1738232369.925,-7.812,-31.738,-39.062,-36.133,43.457
1738232369.929,-24.414,-29.297,-42.969,-62.988,-359.863
1738232369.933,-40.039,-21.484,-45.410,-55.176,-369.141
1738232369.937,-33.203,-25.391,-31.738,-0.977,74.219
1738232369.941,-36.621,-27.344,-30.762,20.508,234.375
1738232369.944,-25.391,-24.414,-31.250,-18.066,-38.086
1738232369.948,-14.648,-26.367,-27.832,-49.805,-186.035
1738232369.952,-15.625,-17.578,-31.738,-34.668,207.031
1738232369.956,-22.949,-9.766,-20.020,0.977,90.332
1738232369.960,-28.809,-15.137,-20.508,-1.953,-156.250
1738232369.960,-37.598,-22.949,-38.086,-19.531,16.602
1738232369.964,-59.570,-31.738,-47.852,-70.312,-144.043
1738232369.968,-59.570,-35.645,-51.270,-90.332,-462.402
1738232369.972,-22.949,-40.527,-53.223,-52.246,-294.434
1738232369.976,-30.762,-36.133,-51.270,-20.996,305.664
1738232369.980,-56.152,-23.926,-48.340,-20.508,299.805
1738232369.984,-43.945,-25.391,-62.012,-57.129,-11.230
1738232369.987,-44.922,-21.973,-59.570,-75.195,-209.473
1738232369.991,-49.805,-24.414,-46.387,-38.086,57.129
1738232369.995,-60.059,-30.273,-60.547,-35.156,627.930
1738232369.999,-47.363,-19.043,-68.848,-34.180,204.102
1738232370.003,-22.461,-10.742,-62.988,-46.387,-184.570
1738232370.006,-27.344,-13.672,-61.035,-77.148,-250.977
1738232370.010,-44.434,-19.531,-56.152,-40.039,-337.402
1738232370.014,-38.086,-21.484,-61.035,-15.625,-122.070
1738232370.018,-37.598,-20.020,-70.801,-35.645,-29.297
1738232370.022,-44.922,-20.020,-74.219,-63.477,-77.637
1738232370.026,-44.434,-20.508,-72.266,-101.562,-156.250
1738232370.030,-56.641,-19.531,-68.848,-77.148,-287.598
1738232370.033,-32.715,-14.160,-55.176,2.441,20.508
1738232370.037,-1.465,-12.695,-58.105,1.953,611.328
1738232370.041,-29.785,-20.996,-68.359,-53.711,263.672
1738232370.045,-48.340,-28.320,-66.406,-84.473,-412.598
1738232370.049,-40.039,-26.367,-59.570,-50.781,-410.645
1738232370.049,-23.438,-21.973,-57.617,-17.090,-188.477
1738232370.053,-2.441,-18.066,-57.617,-17.090,-94.727
1738232370.057,-3.418,-18.555,-57.617,-31.250,-65.430
1738232370.061,-15.625,-20.508,-61.523,-64.453,-129.395
1738232370.065,-21.973,-20.508,-56.641,-68.848,-274.902
1738232370.069,-20.020,-19.531,-53.711,-29.785,-128.906
1738232370.073,-48.828,-23.926,-56.152,-7.324,52.734
1738232370.076,-56.641,-29.785,-57.129,-17.090,486.328
1738232370.080,-36.133,-31.250,-54.199,-53.223,423.340
1738232370.084,-47.852,-31.738,-54.199,-76.172,-296.875
1738232370.088,-26.367,-35.156,-57.617,-18.555,-247.559
1738232370.092,-23.926,-38.574,-66.895,6.348,256.836
1738232370.096,-40.039,-24.414,-64.453,-38.086,125.000
1738232370.100,-9.766,-17.578,-57.617,-50.293,-277.832
1738232370.104,-24.902,-28.809,-58.594,-53.223,-373.535
1738232370.108,-30.762,-23.438,-53.223,-37.109,122.559
1738232370.112,-16.113,-17.090,-40.527,-10.254,141.602
1738232370.116,-9.766,-18.066,-36.621,9.766,48.828
1738232370.120,-23.926,-20.508,-45.410,-16.602,207.520
1738232370.123,-29.785,-15.137,-54.199,-63.477,217.773
1738232370.127,-18.555,-17.578,-33.203,-34.180,-117.676
1738232370.131,-9.277,-22.461,-21.973,8.789,-223.145
1738232370.135,13.184,-11.719,-31.738,21.973,45.898
1738232370.139,6.348,-7.324,-26.855,-2.441,153.320
1738232370.140,-20.508,-17.090,-25.391,-63.965,-248.535
1738232370.144,2.930,-16.113,-24.414,-32.715,-431.152
1738232370.148,20.996,-13.672,-18.066,41.016,13.184
1738232370.152,14.648,-20.020,-17.578,12.207,162.598
1738232370.156,-6.348,-20.020,-15.625,-30.762,-7.324
1738232370.160,-22.949,-24.414,-20.020,-50.781,-75.684
1738232370.164,-40.527,-32.715,-18.555,-37.598,286.133
1738232370.167,-23.926,-29.785,-7.324,30.762,677.246
1738232370.171,16.113,-17.090,-5.859,43.945,90.820
1738232370.175,12.207,-12.695,-6.348,17.090,-143.066
1738232370.179,-25.879,-22.461,-8.301,-56.641,-113.281
1738232370.183,-17.090,-19.531,-10.742,-86.914,-382.812
1738232370.201,6.836,-7.324,-9.766,-27.832,-357.910
1738232370.205,-14.648,-12.207,-1.465,5.859,-25.879
1738232370.209,12.695,7.812,-4.883,23.926,137.695
1738232370.213,47.852,21.973,-21.973,23.926,-171.875
1738232370.217,7.812,-1.465,-18.555,-24.902,-504.395
1738232370.221,-34.180,-8.301,-5.859,-32.227,-183.594
1738232370.225,-53.223,-6.836,-9.766,0.488,562.500
1738232370.228,-38.086,-8.301,-7.324,-24.414,271.973
1738232370.232,-36.133,-18.555,1.953,-96.191,-137.207
1738232370.236,-93.750,-27.832,11.230,-132.812,-237.305
1738232370.240,-96.680,-26.855,25.879,-80.566,-241.211
1738232370.244,-61.523,-32.227,41.016,-24.902,-130.859
1738232370.259,-39.551,-31.738,45.898,8.301,-54.688
1738232370.263,-36.621,-27.832,45.410,-14.160,-12.207
1738232370.267,-33.203,-34.180,51.758,-46.387,-233.398
1738232370.271,-26.367,-44.434,67.871,-6.836,-310.547
1738232370.323,50.293,-44.922,26.855,19.043,-260.254
1738232370.327,39.062,-50.781,23.926,50.293,-254.395
1738232370.331,44.434,-53.711,25.879,104.980,-180.176
1738232370.335,65.918,-46.875,20.020,106.934,-108.887
1738232370.339,57.617,-47.852,14.160,92.285,-38.574
1738232370.343,42.969,-54.688,6.836,59.570,6.836
1738232370.347,71.289,-54.199,11.719,63.477,-86.426
1738232370.350,59.082,-49.805,12.695,104.492,-84.473
1738232370.354,45.410,-52.246,4.395,80.566,4.883
1738232370.358,47.363,-54.688,-0.977,80.078,5.371
1738232370.362,42.969,-58.594,-9.277,71.777,-175.293
1738232370.366,48.828,-60.547,-20.020,64.453,-371.582
1738232370.335,40.039,-68.359,-14.648,91.309,-74.219
1738232370.339,45.898,-64.941,-16.602,105.469,299.316
1738232370.343,68.359,-56.641,-23.438,83.008,-52.734
1738232370.347,54.199,-62.988,-23.926,43.945,-252.930
1738232370.351,44.434,-66.406,-24.414,41.992,-94.727
1738232370.355,56.152,-54.688,-20.996,64.941,-74.219
1738232370.359,60.547,-56.641,-21.484,87.402,-85.938
1738232370.362,36.621,-58.105,-41.016,38.086,-2.930
1738232370.366,10.742,-58.105,-55.664,-4.883,90.820
1738232370.370,3.906,-53.223,-55.664,-1.953,-69.336
1738232370.374,20.508,-45.410,-46.875,12.207,-355.469
1738232370.378,37.598,-42.480,-47.852,33.203,-256.836
1738232370.394,30.273,-36.621,-63.965,28.809,61.523
1738232370.398,10.254,-33.203,-63.965,27.832,-136.230
1738232370.402,-9.277,-33.203,-64.941,10.742,-402.344
1738232370.406,-10.254,-38.574,-71.289,-10.742,-354.004
1738232370.410,13.184,-37.109,-79.590,-2.441,184.570
1738232370.414,22.461,-34.180,-78.613,-5.859,729.980
1738232370.418,-12.207,-41.016,-66.406,-10.742,475.098
1738232370.421,-20.996,-34.180,-71.289,-12.207,-159.668
1738232370.425,-15.625,-25.879,-74.707,-28.320,-5.859
1738232370.429,-16.602,-24.414,-55.664,-40.527,-214.355
1738232370.433,-14.160,-24.902,-50.293,-17.578,-443.848
1738232370.437,-11.230,-28.809,-59.082,-19.531,-216.309
1738232370.440,-13.672,-28.809,-64.453,-31.738,-328.613
1738232370.444,-21.484,-29.785,-61.523,-17.578,-608.398
1738232370.448,14.160,-19.043,-62.500,-25.879,-484.375
1738232370.452,21.484,-14.648,-75.684,-19.043,-185.547
1738232370.456,11.230,-14.160,-82.031,8.789,-246.582
1738232370.460,-25.391,-15.625,-92.773,-18.066,-323.730
1738232370.464,-18.066,-11.719,-95.703,-31.738,-265.137
1738232370.467,20.996,-1.465,-96.191,-11.719,219.727
1738232370.471,14.648,-7.324,-96.191,-12.695,500.000
1738232370.475,1.953,-7.324,-89.355,-36.133,-159.668
1738232370.479,1.465,-0.977,-102.051,-51.270,-391.602
1738232370.483,0.977,-1.953,-113.770,-46.875,49.316
1738232370.475,4.395,2.930,-103.516,-22.461,-60.547
1738232370.479,24.902,5.859,-93.750,0.977,-359.863
1738232370.483,36.621,-0.977,-86.426,-8.789,-166.992
1738232370.487,5.859,-0.488,-80.078,-24.414,191.895
1738232370.491,-12.207,0.977,-71.777,-40.527,-68.359
1738232370.495,-12.207,-7.324,-69.336,-27.344,-196.289
1738232370.499,-3.418,-5.371,-74.707,3.418,43.457
1738232370.502,17.578,1.465,-80.078,14.648,18.555
1738232370.506,22.949,5.371,-84.961,-0.488,-101.562
1738232370.510,-12.695,3.906,-82.031,-25.391,-204.590
1738232370.514,-15.137,-2.930,-78.613,-21.484,-80.566
1738232370.518,11.719,0.000,-80.566,5.859,138.184
1738232370.530,-2.930,1.465,-73.242,17.090,-42.480
1738232370.534,-3.906,-3.418,-67.871,17.090,-138.184
1738232370.538,2.930,-6.348,-83.496,1.465,18.555
1738232370.542,-5.859,-8.789,-83.984,-37.109,-47.852
1738232370.546,8.789,-6.836,-72.754,-36.133,-81.543
1738232370.550,20.508,-8.789,-61.035,-4.395,74.707
1738232370.554,3.418,-11.719,-51.758,8.789,370.605
1738232370.557,3.906,-2.930,-70.801,-5.859,856.445
1738232370.561,-7.812,-7.812,-65.918,-27.832,695.312
1738232370.565,-25.879,-21.973,-38.086,-4.883,58.105
1738232370.569,-12.695,-22.949,-33.691,1.953,-31.250
1738232370.573,2.441,-15.625,-42.969,-15.625,-34.668
1738232370.575,8.789,-14.648,-50.293,-21.973,-150.879
1738232370.579,-1.465,-13.672,-44.434,-15.625,-146.484
1738232370.583,-14.648,-17.578,-38.086,-18.066,-69.824
1738232370.587,-10.742,-25.879,-37.109,-20.996,-62.988
1738232370.591,-14.160,-24.414,-32.715,-3.418,-74.219
1738232370.595,-9.766,-18.066,-38.086,-11.719,43.945
1738232370.599,-5.859,-12.695,-53.711,-41.992,51.758
1738232370.602,-13.184,-15.625,-49.316,-34.180,41.504
1738232370.606,-9.277,-23.438,-41.016,-26.855,-30.273
1738232370.610,-21.484,-24.414,-45.410,-25.391,24.414
1738232370.614,-25.391,-11.230,-49.805,-9.766,539.062
1738232370.618,-15.137,-10.254,-49.316,-30.273,201.660
1738232370.635,-7.324,-15.137,-50.781,-44.922,-226.074
1738232370.639,2.441,-16.113,-57.129,-42.969,-45.898
1738232370.643,11.230,-16.602,-58.105,-20.508,-36.133
1738232370.647,-11.230,-20.020,-67.383,-18.555,-157.715
1738232370.651,-28.320,-28.320,-71.289,-39.062,-92.285
1738232370.655,-16.602,-32.715,-74.219,-40.527,272.949
1738232370.659,-26.367,-34.668,-81.543,-40.527,277.832
1738232370.662,-17.578,-38.574,-82.031,-35.156,165.039
1738232370.666,20.508,-32.715,-90.332,-8.789,68.848
1738232370.670,-7.812,-32.227,-96.680,-6.836,461.426
1738232370.674,-36.621,-34.668,-94.727,-30.762,647.949
1738232370.678,-20.508,-31.250,-91.309,-26.855,-13.184
1738232370.665,-10.254,-31.738,-90.332,-9.766,-194.824
1738232370.669,-10.742,-31.250,-86.914,-20.996,-60.547
1738232370.673,-15.625,-24.414,-84.473,-36.133,-187.988
1738232370.677,-13.672,-23.438,-80.566,-10.254,-305.176
1738232370.681,-12.207,-35.156,-74.219,0.977,-157.715
1738232370.685,-11.719,-32.227,-74.707,2.930,109.375
1738232370.689,-19.531,-31.738,-71.289,-19.531,31.250
1738232370.692,-33.203,-31.738,-78.125,-52.246,-139.648
1738232370.696,-42.969,-30.762,-80.078,-63.477,-146.484
1738232370.700,-21.484,-30.762,-62.500,-46.875,-81.055
1738232370.704,-7.324,-26.367,-62.500,-30.273,-129.883
1738232370.708,-10.254,-30.762,-69.824,-45.898,-143.555
1738232370.710,-14.160,-34.180,-72.266,-32.715,38.086
1738232370.714,-39.062,-29.785,-65.918,-20.020,104.980
1738232370.718,-2.441,-20.020,-58.105,-8.789,-117.188
1738232370.722,13.672,-23.438,-51.270,-21.973,-195.801
1738232370.726,-29.297,-35.645,-46.875,-37.109,139.648
1738232370.730,-8.789,-34.668,-48.340,-10.742,748.047
1738232370.734,-7.812,-25.391,-50.293,-4.395,405.762
1738232370.737,-5.859,-26.367,-50.781,-17.578,-40.039
1738232370.741,-10.742,-39.062,-49.805,-29.297,249.512
1738232370.745,-37.598,-45.898,-44.434,-19.043,207.520
1738232370.749,-34.180,-36.133,-49.316,-13.672,-216.797
1738232370.753,-36.621,-27.832,-65.430,-39.062,-263.184
1738232370.759,-23.438,-26.367,-56.641,-54.688,-184.570
1738232370.763,12.207,-21.973,-47.852,-30.762,-137.207
1738232370.767,11.230,-29.297,-44.434,-19.531,-51.758
1738232370.771,-0.977,-37.598,-48.828,-11.230,-40.039
1738232370.775,-9.277,-26.855,-61.035,-6.836,2.441
1738232370.779,-15.625,-13.672,-64.941,-44.434,-53.711
1738232370.783,-4.395,-17.578,-53.711,-23.926,-36.621
1738232370.786,4.395,-21.973,-48.340,12.207,50.781
1738232370.790,-20.996,-24.902,-51.758,-20.996,349.609
1738232370.794,-30.273,-29.785,-54.688,-24.902,-14.648
1738232370.798,-30.273,-20.996,-62.500,-37.598,-358.398
1738232370.802,-41.504,-20.020,-65.918,-65.918,-130.859
1738232370.845,-12.207,-18.555,-59.570,-28.809,-68.359
1738232370.849,-0.488,-17.090,-59.082,-1.953,-149.902
1738232370.853,-27.344,-23.438,-68.359,-44.922,-174.805
1738232370.857,-41.016,-27.832,-74.707,-64.941,-91.797
1738232370.861,-15.625,-21.973,-68.848,-38.086,-36.133
1738232370.865,0.488,-20.020,-62.012,-26.367,16.113
1738232370.869,-0.488,-26.855,-62.988,-33.691,72.266
1738232370.872,-16.113,-24.902,-76.660,-39.062,421.875
1738232370.876,-31.250,-20.996,-80.566,-53.711,791.992
1738232370.880,-11.719,-18.555,-65.918,-40.527,281.250
1738232370.884,-18.555,-20.020,-56.641,-34.668,-191.895
1738232370.888,-23.926,-23.438,-57.617,-22.461,-132.812
1738232370.851,-11.719,-20.020,-64.453,-6.348,-202.637
1738232370.855,-18.066,-19.043,-67.871,-36.621,-296.875
1738232370.859,-22.949,-23.926,-63.477,-55.176,-256.348
1738232370.863,-15.137,-23.438,-57.129,-32.715,-116.211
1738232370.867,-13.672,-21.484,-55.664,-16.602,-155.273
1738232370.871,-7.324,-21.484,-64.453,-23.438,-114.258
1738232370.875,-24.414,-28.320,-62.988,-36.621,9.277
1738232370.878,-41.504,-30.273,-47.363,-38.574,-20.508
1738232370.882,-25.391,-19.043,-37.598,-23.438,-112.793
1738232370.886,-5.371,-19.531,-42.969,0.000,-194.824
1738232370.890,-4.395,-24.414,-48.340,10.254,-79.590
1738232370.894,-28.320,-22.461,-52.246,-26.855,19.043
1738232370.890,-50.781,-29.785,-54.688,-46.387,-182.617
1738232370.894,-29.785,-30.273,-52.246,-30.762,-249.512
1738232370.898,-13.672,-29.785,-50.293,-15.137,-9.277
1738232370.902,-24.902,-32.715,-51.270,-18.555,48.340
1738232370.906,-51.270,-29.297,-55.176,-36.133,-107.910
1738232370.910,-42.480,-25.391,-51.758,-41.016,-28.320
1738232370.914,-20.508,-25.879,-44.434,-44.434,415.039
1738232370.917,-39.551,-28.320,-44.922,-39.062,856.445
1738232370.921,-29.297,-26.855,-44.434,-31.250,755.371
1738232370.925,-57.129,-27.344,-31.250,-54.199,259.277
1738232370.929,-77.637,-31.738,-23.926,-70.801,-9.766
1738232370.933,-43.945,-28.320,-19.531,-51.270,-177.246
1738232370.950,-34.668,-22.949,-22.461,-33.203,-317.383
1738232370.954,-48.340,-28.809,-25.879,-41.016,-226.562
1738232370.958,-70.312,-28.809,-31.738,-57.617,-19.531
1738232370.962,-75.195,-26.367,-30.762,-64.453,-213.379
1738232370.966,-57.129,-30.762,-32.227,-58.594,-369.629
1738232370.970,-43.457,-25.879,-44.922,-55.664,-62.500
1738232370.974,-58.105,-29.785,-42.969,-79.590,280.273
1738232370.977,-63.477,-27.832,-40.527,-85.449,-34.180
1738232370.981,-52.246,-13.672,-44.434,-71.777,-339.844
1738232370.985,-33.691,-16.113,-40.527,-78.125,-187.500
1738232370.989,-41.504,-18.555,-25.879,-72.266,-52.246
1738232370.993,-42.969,-17.578,-22.461,-64.941,-161.133
1738232371.010,-28.809,-21.484,-34.180,-51.270,-229.004
1738232371.014,-48.828,-23.926,-46.387,-84.961,-127.441
1738232371.018,-69.824,-26.855,-36.621,-81.055,-52.246
1738232371.022,-43.945,-23.438,-28.320,-59.082,-176.758
1738232371.026,-9.277,-19.531,-25.879,-47.363,-214.844
1738232371.030,-1.465,-17.578,-27.344,-45.410,214.355
1738232371.034,-17.578,-14.648,-35.156,-62.500,406.250
1738232371.037,-12.207,-14.648,-35.156,-56.152,-75.684
1738232371.041,-15.625,-22.949,-38.086,-47.363,-199.219
1738232371.045,-19.043,-33.203,-45.410,-23.438,184.082
1738232371.049,-7.812,-33.691,-49.316,-5.371,141.602
1738232371.053,-24.902,-30.762,-57.617,-36.621,-248.535
1738232371.071,-27.344,-26.855,-61.523,-42.969,-227.539
1738232371.075,-18.555,-24.902,-56.641,-33.691,-35.156
1738232371.079,-27.832,-21.484,-50.781,-34.180,30.273
1738232371.083,-2.930,-20.508,-50.293,-31.250,-134.766
1738232371.087,-7.812,-17.578,-56.641,-48.340,-167.969
1738232371.091,-20.996,-16.113,-59.570,-40.527,468.750
1738232371.095,3.418,-17.090,-48.828,-14.648,388.184
1738232371.098,1.953,-18.066,-45.410,-15.137,-153.809
1738232371.102,-6.836,-28.320,-56.641,-26.855,-69.824
1738232371.106,-14.160,-34.180,-58.594,-11.719,-18.555
1738232371.110,-28.320,-27.344,-42.480,-28.320,-242.188
1738232371.114,-1.953,-31.250,-24.414,-32.715,-341.309
1738232371.075,9.277,-37.109,-26.367,0.000,-29.785
1738232371.079,0.488,-35.645,-29.297,2.930,384.766
1738232371.083,-15.625,-30.762,-26.367,-4.883,-22.949
1738232371.087,-26.855,-27.832,-45.898,-27.344,-269.043
1738232371.091,-24.414,-32.227,-58.594,-32.715,-123.535
1738232371.095,-3.418,-29.297,-50.781,-1.953,-69.824
1738232371.099,13.672,-26.367,-47.852,1.953,-24.902
1738232371.102,-5.859,-26.367,-55.664,1.953,58.594
1738232371.106,-0.488,-26.367,-57.617,8.789,124.023
1738232371.110,-5.859,-32.227,-47.363,1.953,-90.820
1738232371.114,0.000,-27.832,-44.922,-10.742,-274.902
1738232371.118,34.668,-18.555,-47.852,-4.395,-137.695
1738232371.131,27.832,-20.020,-50.781,3.418,219.727
1738232371.135,-20.508,-21.973,-54.688,-4.883,37.109
1738232371.139,-30.273,-23.926,-52.246,-9.277,-279.785
1738232371.143,-1.465,-19.531,-44.922,-10.742,-195.312
1738232371.147,11.719,-19.043,-45.410,2.441,431.641
1738232371.151,20.508,-18.555,-44.922,18.066,722.168
1738232371.155,6.836,-14.160,-41.992,-4.395,26.367
1738232371.158,0.488,-18.066,-39.062,-11.230,-157.715
1738232371.162,14.160,-20.020,-38.086,16.113,341.797
1738232371.166,-1.953,-13.184,-33.203,15.137,59.082
1738232371.170,1.465,-10.742,-32.715,9.766,-288.574
1738232371.174,9.766,-12.695,-41.016,-17.090,-180.664
1738232371.174,-20.996,-15.625,-41.992,-21.973,-229.004
1738232371.178,-8.789,-17.578,-30.762,21.484,-277.832
1738232371.182,10.742,-18.555,-26.367,41.504,-207.520
1738232371.186,15.137,-21.484,-38.086,17.578,-57.129
1738232371.190,29.297,-23.926,-47.363,4.395,-106.934
1738232371.194,-2.441,-26.855,-41.992,-5.371,-174.316
1738232371.198,6.836,-25.391,-32.715,8.789,-107.910
1738232371.201,49.316,-24.902,-34.180,40.039,278.320
1738232371.205,23.438,-20.508,-35.156,26.367,645.508
1738232371.209,-3.418,-21.973,-32.715,19.043,152.832
1738232371.213,-28.320,-26.855,-39.062,-4.395,-81.055
1738232371.217,-3.418,-17.578,-35.156,-16.602,89.844
1738232371.221,32.715,-14.648,-41.016,-7.812,-149.902
1738232371.225,27.344,-28.809,-39.551,6.836,-282.715
1738232371.229,1.953,-32.715,-23.438,16.602,-167.480
1738232371.233,-6.836,-28.809,-13.184,-4.395,-139.648
1738232371.237,17.578,-25.391,-2.441,-6.348,-223.633
1738232371.241,28.809,-23.926,6.348,3.906,-209.961
1738232371.245,-10.254,-29.785,0.977,-1.953,38.086
1738232371.248,-19.043,-33.691,-15.137,2.930,427.246
1738232371.252,-21.484,-28.809,-26.855,-13.672,51.758
1738232371.256,-9.277,-23.926,-28.320,-13.672,-300.293
1738232371.260,-18.066,-25.391,-34.180,-6.348,-182.617
1738232371.264,-5.859,-32.227,-28.320,1.953,-113.281
1738232371.266,9.277,-34.180,-20.508,-9.766,-55.176
1738232371.270,-14.648,-34.668,-25.391,-25.879,-144.043
1738232371.274,-12.207,-38.574,-23.438,-25.879,19.531
1738232371.278,1.953,-34.180,-14.648,-45.898,2.441
1738232371.340,-11.230,-22.949,-13.184,-28.320,-302.246
1738232371.344,-9.277,-22.461,-0.488,-17.090,-242.676
1738232371.348,-3.906,-24.414,15.625,2.441,-26.855
1738232371.352,3.418,-29.297,17.090,17.578,62.012
1738232371.356,-2.441,-25.879,7.324,-0.488,-164.062
1738232371.360,2.441,-25.391,-3.418,-9.277,-119.141
1738232371.364,0.488,-36.621,3.906,4.395,518.066
1738232371.367,-8.301,-37.598,10.742,-7.812,338.867
1738232371.371,-6.348,-34.180,4.883,-20.508,-174.316
1738232371.375,-10.742,-31.738,4.395,-25.391,-141.113
1738232371.379,-16.113,-26.367,11.230,-32.227,-166.992
1738232371.383,-16.113,-21.973,19.043,-18.555,-278.320
1738232371.372,12.695,-13.672,18.066,7.812,-224.121
1738232371.376,10.742,-14.160,8.789,3.418,-69.336
1738232371.380,-32.715,-29.785,10.254,-19.043,-94.238
1738232371.384,-27.344,-32.227,-4.395,-25.391,-243.652
1738232371.388,-27.832,-29.785,-27.832,-38.574,-156.738
1738232371.392,-34.668,-34.668,-24.902,-27.832,148.438
1738232371.396,-19.531,-30.273,-20.508,-13.184,133.301
1738232371.399,-15.625,-26.855,-20.996,-28.809,75.195
1738232371.403,-37.109,-40.039,-18.066,-34.180,76.172
1738232371.407,-46.875,-45.898,-20.020,-29.297,265.137
1738232371.411,-18.555,-41.016,-17.090,-20.508,75.684
1738232371.415,-2.930,-39.551,-19.043,-25.879,-242.188
1738232371.432,-5.859,-33.691,-20.508,-32.227,-158.203
1738232371.436,-22.949,-34.668,-22.949,-40.527,251.465
1738232371.440,-30.762,-40.039,-19.043,-57.617,51.270
1738232371.444,-26.855,-34.668,-17.090,-37.109,-308.594
1738232371.448,-21.973,-34.668,-28.320,-21.484,-150.879
1738232371.452,-31.250,-40.527,-37.109,-19.043,172.363
1738232371.456,-47.852,-35.645,-54.199,-46.387,106.445
1738232371.459,-47.852,-34.668,-67.383,-67.383,-164.062
1738232371.463,-34.668,-37.109,-58.105,-45.410,-51.758
1738232371.467,-21.484,-37.109,-49.316,-38.086,489.258
1738232371.471,-22.949,-33.203,-39.551,-29.297,620.117
1738232371.475,-40.527,-30.273,-25.391,-20.508,-20.020
1738232371.460,-37.598,-35.645,-25.391,-37.598,-268.066
1738232371.464,-28.320,-37.598,-24.902,-55.664,-252.930
1738232371.468,-19.531,-38.574,-21.973,-46.875,-277.344
1738232371.472,-21.484,-40.039,-28.320,-40.039,-232.422
1738232371.476,-32.715,-42.480,-31.738,-29.785,-76.172
1738232371.480,-41.504,-42.480,-37.109,-33.691,8.301
1738232371.484,-43.945,-43.945,-37.598,-44.922,-149.414
1738232371.487,-30.762,-46.875,-32.715,-37.109,-0.977
1738232371.491,-27.344,-43.945,-42.969,-37.109,322.754
1738232371.495,-27.832,-42.969,-48.340,-41.504,44.434
1738232371.499,-38.086,-41.016,-41.992,-45.410,-215.332
1738232371.503,-46.875,-34.668,-35.156,-52.734,-263.672
1738232371.536,-26.855,-29.785,-40.039,-24.414,192.871
1738232371.540,-28.809,-26.855,-40.039,-8.789,620.117
1738232371.544,-39.551,-27.832,-42.480,-37.598,67.383
1738232371.548,-52.734,-32.715,-54.199,-50.781,-253.906
1738232371.552,-58.594,-35.645,-60.059,-46.387,-153.809
1738232371.556,-27.832,-32.715,-55.664,-18.066,-161.133
1738232371.560,-27.832,-30.273,-59.082,-8.789,-121.582
1738232371.563,-48.828,-33.691,-65.430,-33.691,-23.926
1738232371.567,-34.668,-27.344,-71.777,-41.504,322.266
1738232371.571,-34.668,-25.391,-72.754,-36.133,-23.926
1738232371.575,-39.062,-31.250,-73.730,-43.945,-307.129
1738232371.579,-14.648,-22.949,-71.289,-33.691,-163.086
1738232371.567,3.418,-16.602,-62.500,-23.926,-93.750
1738232371.571,-24.414,-26.367,-65.430,-42.969,-91.797
1738232371.575,-38.574,-33.691,-60.059,-47.363,-252.930
1738232371.579,-41.504,-32.227,-52.246,-30.273,-136.230
1738232371.583,-40.527,-32.227,-53.223,-29.297,-50.781
1738232371.587,-16.602,-28.809,-64.453,-14.648,-79.590
1738232371.591,-21.484,-31.250,-67.383,-9.766,15.625
1738232371.594,-71.777,-40.039,-55.176,-41.992,303.711
1738232371.598,-69.336,-33.691,-48.340,-45.410,190.430
1738232371.602,-57.129,-35.156,-53.223,-39.551,-233.887
1738232371.606,-46.875,-42.480,-57.129,-40.039,-177.246
1738232371.610,-18.555,-42.969,-65.918,-28.320,32.715
1738232371.596,-43.945,-44.922,-69.336,-42.969,-121.094
1738232371.600,-39.551,-42.969,-62.500,-34.668,-316.895
1738232371.604,-21.484,-38.574,-62.012,-7.324,-190.430
1738232371.608,-32.715,-38.086,-73.242,-20.508,528.320
1738232371.612,-36.133,-34.668,-68.848,-36.621,424.805
1738232371.616,-45.410,-29.297,-67.871,-49.805,-115.723
1738232371.620,-52.734,-28.320,-72.754,-54.199,0.000
1738232371.623,-29.297,-32.715,-63.965,-26.855,121.582
1738232371.627,-25.391,-30.273,-57.617,-20.020,-97.656
1738232371.631,-42.480,-26.855,-58.594,-35.645,-285.156
1738232371.635,-45.410,-30.762,-62.988,-42.480,-191.406
1738232371.639,-45.410,-35.156,-59.570,-29.297,391.602
1738232371.641,-35.156,-29.297,-44.434,-21.973,296.387
1738232371.645,-40.527,-23.438,-50.293,-38.574,-216.309
1738232371.649,-48.828,-23.926,-56.152,-48.340,-92.773
1738232371.653,-40.039,-31.250,-51.270,-46.387,-122.070
1738232371.657,-46.387,-29.785,-54.199,-43.457,-220.215
1738232371.661,-45.898,-26.367,-51.758,-38.574,-126.953
1738232371.665,-24.902,-33.203,-52.734,-32.227,255.859
1738232371.668,-37.109,-33.691,-57.129,-31.250,507.812
1738232371.672,-59.082,-34.668,-54.199,-38.574,23.438
1738232371.676,-48.828,-38.086,-59.570,-46.875,-247.559
1738232371.680,-37.598,-30.762,-57.617,-58.594,24.902
1738232371.684,-34.180,-30.762,-45.410,-46.387,-37.598
1738232371.729,-25.391,-38.574,-46.387,-29.785,-237.793
1738232371.733,-43.457,-39.551,-61.523,-35.156,-174.316
1738232371.737,-66.406,-43.945,-62.012,-53.711,-3.418
1738232371.741,-41.016,-43.457,-55.176,-37.598,-129.883
1738232371.745,-32.227,-43.945,-55.664,-15.625,-251.465
1738232371.749,-37.109,-47.852,-57.617,-33.203,-13.184
1738232371.753,-22.949,-52.246,-56.641,-63.477,620.605
1738232371.756,-35.156,-54.199,-54.688,-68.359,425.293
1738232371.760,-31.738,-47.852,-49.316,-56.152,-159.180
1738232371.764,-43.457,-45.898,-49.805,-42.480,-90.820
1738232371.768,-62.500,-51.270,-50.293,-50.781,-47.363
1738232371.772,-61.523,-54.199,-47.363,-41.504,-251.465
1738232371.734,-49.316,-51.758,-51.758,-47.363,-355.469
1738232371.738,-50.781,-54.199,-56.152,-68.359,-241.211
1738232371.742,-60.547,-53.711,-46.875,-48.340,-172.363
1738232371.746,-31.250,-45.898,-41.992,-16.113,-219.238
1738232371.750,-19.043,-46.875,-44.434,-20.508,-145.508
1738232371.754,-63.965,-50.293,-47.363,-41.992,144.531
1738232371.758,-69.824,-44.434,-46.387,-63.477,161.133
1738232371.761,-25.391,-42.969,-36.133,-33.203,14.648
1738232371.765,-15.625,-47.852,-43.457,-23.926,-16.113
1738232371.769,-39.062,-45.898,-51.270,-46.387,33.203
1738232371.773,-38.086,-43.945,-44.434,-46.875,-48.828
1738232371.777,-30.762,-48.340,-51.270,-44.434,-209.473
1738232371.806,-31.250,-47.852,-50.293,-46.875,-205.566
1738232371.810,-32.227,-41.992,-41.992,-46.387,73.730
1738232371.814,-62.012,-41.016,-37.598,-34.180,-27.344
1738232371.818,-72.266,-38.574,-41.992,-49.316,-273.438
1738232371.822,-63.965,-34.668,-47.852,-69.336,-260.742
1738232371.826,-60.059,-37.598,-39.062,-55.664,475.586
1738232371.830,-51.758,-41.992,-40.527,-55.176,901.855
1738232371.833,-41.992,-34.180,-39.551,-55.176,208.984
1738232371.837,-47.363,-40.527,-28.809,-51.758,-265.137
1738232371.841,-26.855,-59.082,-34.180,-64.941,-300.293
1738232371.845,-3.906,-33.691,-37.109,-57.617,-326.660
1738232371.849,-14.648,-8.789,-32.715,-78.125,-311.523
1738232371.864,-65.918,-4.883,-41.992,-103.516,-174.316
1738232371.868,-177.734,-4.395,-46.387,-116.699,22.949
1738232371.872,-192.383,-5.371,-37.598,-142.090,-224.121
1738232371.876,-162.109,2.441,-21.973,-151.855,-413.086
1738232371.880,-171.387,12.207,-25.391,-168.457,-3.906
1738232371.884,-183.105,30.762,-42.969,-186.523,187.988
1738232371.888,-220.703,44.922,-37.598,-213.867,-32.715
1738232371.891,-255.371,53.223,-33.203,-260.742,-112.305
1738232371.895,-262.695,58.594,-33.203,-285.156,-47.363
1738232371.899,-265.625,61.523,-22.461,-284.668,-158.691
1738232371.903,-257.324,70.312,-23.438,-273.926,-241.699
1738232371.907,-277.832,85.449,-32.227,-306.641,-209.961
1738232371.926,-282.227,66.406,-40.039,-324.707,176.270
1738232371.930,-261.230,43.945,-31.738,-316.895,281.738
1738232371.934,-283.691,53.223,-41.016,-324.707,-224.121
1738232371.938,-279.297,57.617,-64.941,-306.152,-112.305
1738232371.942,-250.000,51.758,-64.453,-284.180,112.793
1738232371.946,-220.703,38.574,-58.105,-272.949,-69.824
1738232371.950,-215.820,-8.301,-68.359,-271.484,-128.906
1738232371.953,-199.219,-39.062,-72.754,-237.793,-166.992
1738232371.957,-161.621,-28.809,-57.129,-184.082,-44.434
1738232371.961,-169.434,-20.508,-30.762,-167.480,-62.500
1738232371.965,-136.230,-14.648,-21.484,-141.602,-229.980
1738232371.969,-100.098,-21.484,-25.391,-154.297,-237.793
1738232371.931,-93.262,-41.016,-3.906,-152.832,-174.805
1738232371.935,-54.199,-48.340,20.020,-71.289,-175.293
1738232371.939,-47.363,-53.223,46.875,-62.988,-162.109
1738232371.943,-46.875,-66.895,60.059,-68.848,29.297
1738232371.947,-26.855,-83.496,70.801,-62.988,107.422
1738232371.951,-8.789,-106.445,122.070,-38.574,-122.070
1738232371.955,3.418,-119.141,166.016,-16.602,-128.418
1738232371.958,44.434,-124.023,174.805,-5.371,404.785
1738232371.962,64.453,-125.000,184.082,-2.930,571.777
1738232371.966,43.457,-118.652,206.543,-25.879,-154.297
1738232371.970,22.949,-131.348,216.797,-5.859,-324.707
1738232371.974,26.855,-137.695,223.145,6.348,1.953
1738232371.985,34.180,-126.465,217.773,10.742,-55.664
1738232371.989,20.020,-124.512,208.496,15.137,-174.316
1738232371.993,36.621,-116.211,189.941,4.395,-173.828
1738232371.997,37.109,-111.328,169.922,8.301,-115.723
1738232372.001,12.207,-124.023,168.457,41.504,-153.809
1738232372.005,18.066,-122.559,143.066,40.039,43.457
1738232372.009,32.227,-111.816,120.605,34.668,198.730
1738232372.012,31.738,-111.816,95.215,14.160,379.395
1738232372.016,42.969,-105.469,68.359,-8.789,558.105
1738232372.020,34.668,-97.168,73.730,31.250,560.059
1738232372.024,39.551,-85.449,69.336,53.223,142.090
1738232372.028,25.391,-66.406,53.711,31.250,-120.605
1738232372.015,1.465,-62.988,29.297,15.137,-292.480
1738232372.019,9.277,-59.082,15.137,-7.324,-500.488
1738232372.023,19.531,-36.621,-6.836,1.953,-297.852
1738232372.027,18.066,-33.203,-45.410,34.180,-133.789
1738232372.031,16.602,-34.668,-53.711,40.527,-108.398
1738232372.035,10.742,-32.715,-58.594,50.781,-127.441
1738232372.039,-8.789,-27.344,-91.797,6.836,-32.715
1738232372.042,4.395,-18.555,-131.836,0.488,6.836
1738232372.046,14.160,-16.602,-156.250,38.086,-138.184
1738232372.050,18.066,-11.230,-179.688,28.320,-202.637
1738232372.054,25.879,-8.301,-210.938,11.230,210.938
1738232372.058,25.879,-6.348,-222.168,-11.719,455.078
1738232372.076,28.320,-3.906,-214.355,-15.137,-242.676
1738232372.080,30.273,-4.395,-208.496,23.438,-332.031
1738232372.084,38.574,2.441,-215.820,34.668,-53.711
1738232372.088,38.574,6.348,-223.633,20.996,-112.305
1738232372.092,23.438,0.000,-188.965,-3.906,-395.020
1738232372.096,10.742,3.906,-156.738,-1.953,-239.746
1738232372.100,-2.441,4.883,-161.133,29.297,449.219
1738232372.103,-4.883,-3.418,-174.805,27.344,150.879
1738232372.107,23.926,6.836,-182.129,-13.672,-233.398
1738232372.111,6.348,7.812,-187.012,-44.922,-255.859
1738232372.115,-47.363,-8.301,-166.992,-27.832,-317.871
1738232372.119,-29.785,-5.371,-146.484,6.836,-261.719
1738232372.105,-10.742,-1.953,-156.738,30.273,-149.902
1738232372.109,-9.766,-12.207,-163.574,26.367,126.465
1738232372.113,-23.438,-23.926,-158.203,-9.766,75.684
1738232372.117,-42.969,-14.160,-135.254,-44.922,-327.637
1738232372.121,-22.949,0.488,-115.723,5.371,-280.273
1738232372.125,9.766,-0.977,-110.352,49.316,247.070
1738232372.129,3.418,-3.418,-101.074,24.902,338.379
1738232372.132,9.277,1.465,-79.590,-11.230,30.273
1738232372.136,15.625,3.906,-65.918,-37.109,-321.777
1738232372.140,5.859,0.000,-74.219,5.859,-10.254
1738232372.144,3.418,0.000,-78.613,43.457,539.551
1738232372.148,13.184,0.488,-73.242,18.555,107.422
1738232372.166,9.766,-0.488,-89.844,-20.508,-197.266
1738232372.170,5.859,-5.371,-104.492,-39.551,-278.320
1738232372.174,1.953,-19.043,-105.469,-25.391,-359.375
1738232372.178,-3.906,-29.297,-92.285,8.301,-217.285
1738232372.182,-15.137,-24.902,-86.914,20.996,90.332
1738232372.186,2.930,-20.996,-83.984,10.742,355.469
1738232372.190,-1.953,-22.949,-70.312,-35.156,-59.082
1738232372.193,-27.344,-30.762,-54.688,-35.156,-401.367
1738232372.197,-16.113,-33.691,-47.363,17.090,-157.715
1738232372.201,-8.789,-33.691,-46.875,2.441,43.945
1738232372.205,-10.742,-34.668,-41.504,-24.414,-41.016
1738232372.209,-27.832,-30.762,-40.527,-50.293,-326.172
1738232372.210,-19.531,-24.902,-39.062,-41.992,-253.418
1738232372.214,-1.465,-27.832,-25.391,9.766,179.199
1738232372.218,-8.301,-30.273,-21.484,8.301,66.895
1738232372.222,-61.523,-28.320,-38.574,-17.090,-71.289
1738232372.226,-53.223,-29.785,-47.852,-40.527,-56.152
1738232372.230,38.086,-22.949,-43.457,-32.715,-146.484
1738232372.234,43.945,-11.719,-44.434,0.488,-29.785
1738232372.237,14.648,-8.301,-51.758,19.531,165.527
1738232372.241,-19.531,-23.926,-57.617,20.996,537.598
1738232372.245,-29.785,-31.738,-62.012,-34.180,489.258
1738232372.249,-27.344,-22.461,-49.316,-37.598,-303.711
1738232372.253,-5.859,-14.648,-38.574,7.812,-328.125
1738232372.256,-1.465,-13.672,-41.016,8.301,324.219
1738232372.260,24.902,-2.930,-47.363,11.230,302.734
1738232372.264,32.227,-0.977,-55.664,11.230,-203.613
1738232372.268,-13.672,-22.949,-56.641,0.977,-402.344
1738232372.272,-34.180,-23.438,-52.246,2.930,-333.008
1738232372.276,-8.789,-11.719,-57.617,11.230,18.066
1738232372.280,32.715,-8.789,-50.781,23.926,66.406
1738232372.283,3.906,-9.277,-50.293,1.465,-51.270
1738232372.287,-0.977,-22.949,-57.129,-22.461,199.219
1738232372.291,11.719,-16.113,-39.062,8.789,-49.316
1738232372.295,7.324,-8.301,-24.414,51.270,-243.164
1738232372.299,35.156,-9.766,-23.926,57.129,-3.906
1738232372.299,-0.488,5.859,-34.668,-3.418,25.391
1738232372.303,1.953,11.719,-41.016,-23.926,-317.383
1738232372.307,10.742,-2.930,-38.574,2.441,-398.438
1738232372.311,-5.859,-7.324,-53.223,17.090,1.465
1738232372.346,9.277,-3.418,-76.660,-32.227,-108.887
1738232372.350,5.859,-5.859,-69.336,4.883,-342.773
1738232372.354,2.930,3.418,-72.754,29.785,-112.305
1738232372.358,0.977,5.859,-76.172,24.902,-3.418
1738232372.362,-1.953,-5.859,-87.402,-32.715,-198.730
1738232372.366,-43.945,-15.625,-95.215,-51.270,-330.078
1738232372.370,-27.344,-7.812,-90.332,-5.371,34.668
1738232372.373,23.438,1.465,-86.426,21.973,495.117
1738232372.377,-3.906,5.371,-91.797,-10.742,185.059
1738232372.381,-1.953,8.301,-94.727,-29.297,-244.141
1738232372.385,-18.555,-1.953,-98.145,-45.410,-368.652
1738232372.389,-8.789,-20.020,-99.121,-45.898,-314.941
1738232372.420,20.996,-20.996,-96.680,-22.949,-177.734
1738232372.424,15.625,-22.949,-103.027,-18.066,-56.152
1738232372.428,-31.738,-38.574,-105.469,-33.203,124.512
1738232372.432,-60.547,-41.016,-99.121,-61.523,-145.996
1738232372.436,-31.738,-37.598,-88.867,-50.293,-346.191
1738232372.440,-26.855,-47.363,-88.379,-23.926,-169.922
1738232372.444,-47.363,-52.246,-98.145,-20.508,364.258
1738232372.447,-42.969,-53.711,-100.586,-40.039,741.211
1738232372.451,-2.441,-62.012,-102.539,-88.867,-81.543
1738232372.455,-9.277,-73.730,-96.680,-73.242,-417.969
1738232372.459,-35.645,-83.008,-94.238,-19.043,76.172
1738232372.463,-48.340,-85.449,-95.215,-15.625,63.477
1738232372.452,-51.270,-83.496,-97.168,-34.668,-147.461
1738232372.456,-42.480,-84.473,-100.586,-64.941,-257.812
1738232372.460,-13.184,-82.520,-89.844,-54.688,-293.457
1738232372.464,-11.719,-87.891,-84.961,-19.531,-183.594
1738232372.468,-60.547,-101.562,-83.496,-28.809,-66.895
1738232372.472,-78.613,-103.027,-77.148,-45.898,190.918
1738232372.476,-55.664,-93.750,-80.566,-54.199,189.941
1738232372.479,-47.852,-89.844,-79.590,-43.945,-229.492
1738232372.483,-54.199,-90.820,-74.707,-36.621,-265.137
1738232372.487,-32.227,-83.496,-78.125,-41.016,-17.090
1738232372.491,-32.715,-77.637,-79.590,-36.621,92.285
1738232372.495,-41.016,-78.613,-68.359,-57.617,-139.648
1738232372.495,-10.742,-68.359,-62.988,-70.312,-408.691
1738232372.499,-26.855,-62.988,-59.570,-31.250,-76.172
1738232372.503,-56.641,-61.035,-55.176,-17.578,640.137
1738232372.507,-54.688,-56.152,-53.711,-23.926,312.012
1738232372.511,-62.012,-62.012,-60.547,-50.293,-175.781
1738232372.515,-51.758,-62.012,-66.895,-87.891,10.742
1738232372.519,-15.625,-43.945,-62.988,-92.773,-12.207
1738232372.522,-40.039,-28.809,-53.711,-42.969,-61.523
1738232372.526,-50.781,-17.578,-59.082,-30.273,180.176
1738232372.530,-49.316,-13.184,-61.035,-40.039,325.195
1738232372.534,-60.059,-11.230,-55.664,-69.824,-75.684
1738232372.538,-49.805,-10.254,-53.711,-59.570,-372.070
1738232372.542,-37.598,-3.418,-49.316,-8.789,-205.566
1738232372.546,-21.484,-2.930,-52.734,15.625,299.805
1738232372.550,-11.230,-3.418,-52.734,-22.461,298.828
1738232372.554,-28.809,1.465,-50.293,-81.055,-277.832
1738232372.558,-68.359,-2.441,-44.922,-42.969,-350.098
1738232372.562,-51.270,0.977,-46.387,-3.906,-76.172
1738232372.566,-35.156,1.953,-48.828,-15.625,64.453
1738232372.569,-35.156,9.766,-34.668,0.488,-121.094
1738232372.573,-3.418,20.508,-41.016,-25.391,-240.234
1738232372.577,-21.973,10.742,-56.152,-66.895,317.871
1738232372.581,-57.617,10.254,-37.598,-20.508,217.285
1738232372.585,-46.875,13.672,-26.855,29.297,-168.457
1738232372.584,-36.621,9.766,-35.156,9.766,-23.926
1738232372.588,-25.879,3.906,-39.062,-25.391,-189.453
1738232372.592,-35.156,3.906,-30.762,-12.207,-419.434
1738232372.596,-13.672,9.766,-25.879,20.508,-273.438
1738232372.600,14.648,7.812,-34.180,5.859,40.527
1738232372.604,-20.020,4.883,-37.598,-6.348,173.340
1738232372.608,-29.297,9.277,-35.645,-31.738,-3.906
1738232372.611,-9.277,6.348,-36.133,-33.691,-276.367
1738232372.615,1.953,8.301,-38.086,12.695,136.230
1738232372.619,27.344,19.531,-37.598,16.602,710.938
1738232372.623,23.926,19.531,-33.691,2.441,214.844
1738232372.627,2.930,10.742,-32.227,0.977,-112.305
1738232372.631,-6.348,14.648,-28.320,-18.066,4.883
1738232372.635,11.230,22.461,-16.602,7.324,-187.500
1738232372.639,37.598,30.273,-20.508,19.043,-173.828
1738232372.643,-20.508,31.738,-26.367,9.277,-20.508
1738232372.647,-45.898,24.902,-15.625,25.391,-33.203
1738232372.651,0.488,30.762,-14.160,-8.301,-221.191
1738232372.655,2.441,32.227,-26.855,-17.578,-322.754
1738232372.658,-22.461,24.902,-20.508,34.180,-72.754
1738232372.662,-11.230,19.531,-9.766,48.340,488.281
1738232372.666,7.324,32.227,-8.301,3.418,220.215
1738232372.670,-11.230,34.668,-13.184,-18.066,-312.500
1738232372.674,-0.977,28.809,-18.066,-7.812,-288.086
1738232372.676,-0.488,27.344,-16.602,6.348,-112.305
1738232372.680,-26.855,16.602,-17.090,-0.977,-46.387
1738232372.684,-31.738,16.113,-20.020,6.348,23.438
1738232372.688,-4.883,22.949,-24.414,-18.066,-26.855
1738232372.692,19.043,19.531,-21.484,-10.254,-174.316
1738232372.696,-39.551,10.254,-19.043,-6.348,-95.215
1738232372.700,-41.016,3.906,-25.391,-12.695,32.715
1738232372.703,9.766,11.719,-31.250,-12.695,429.688
1738232372.707,-3.906,23.438,-24.414,-61.035,612.305
1738232372.711,-41.016,23.926,-22.949,-79.590,-157.227
1738232372.715,-52.246,13.184,-23.438,-19.531,-304.199
1738232372.719,-37.109,10.742,-22.949,28.809,31.250
1738232372.721,-29.297,11.719,-21.484,-2.930,-18.066
1738232372.725,-31.250,12.695,-18.555,-46.875,-219.727
1738232372.729,-35.645,9.277,-26.855,-63.965,-360.840
1738232372.733,-41.992,-0.488,-21.973,-42.480,-225.586
1738232372.737,-56.641,-10.742,-15.137,-8.301,-20.020
1738232372.741,-35.156,-16.602,-17.578,8.789,189.941
1738232372.745,-13.672,-7.324,-23.438,-27.344,124.023
1738232372.748,-59.570,-11.719,-34.180,-53.223,261.230
1738232372.752,-35.645,-12.695,-28.809,-14.160,202.148
1738232372.756,-18.555,-5.371,-22.949,-0.488,-120.605
1738232372.760,-47.363,-16.602,-25.391,-15.137,-43.945
1738232372.764,-35.156,-19.531,-29.297,-29.785,-77.148
1738232372.764,-30.273,-8.301,-36.621,-65.430,-380.371
1738232372.768,-49.316,-11.719,-38.574,-49.805,-356.445
1738232372.772,-38.086,-16.113,-30.762,9.277,-34.668
1738232372.776,-30.762,-10.742,-26.855,4.883,27.344
1738232372.780,-36.133,-5.371,-31.738,-31.738,-100.098
1738232372.784,-42.969,-4.883,-36.133,-69.336,-143.066
1738232372.788,-27.344,-16.113,-35.156,-42.480,189.453
1738232372.791,-20.020,-20.020,-35.645,-15.625,479.492
1738232372.795,-29.297,-14.160,-31.738,-27.832,83.496
1738232372.799,-26.367,-12.695,-26.367,-31.250,-115.723
1738232372.803,-36.621,-5.859,-32.227,-64.941,97.656
1738232372.807,-38.574,-5.371,-34.180,-63.965,-59.082
1738232372.827,-3.418,-8.789,-29.785,-20.020,-246.094
1738232372.831,-14.160,-5.859,-30.762,-6.836,-61.035
1738232372.835,-32.715,-11.230,-30.762,-18.066,59.082
1738232372.839,-38.574,-14.648,-27.344,-50.781,-178.223
1738232372.843,-40.039,-12.695,-27.832,-54.688,-419.434
1738232372.847,-16.113,-11.230,-31.738,-25.391,-9.766
1738232372.851,-27.832,-13.672,-31.250,8.301,635.254
1738232372.854,-37.598,-14.160,-27.344,2.441,288.574
1738232372.858,-32.227,-18.555,-28.809,-38.574,-316.406
1738232372.862,-41.504,-23.926,-31.250,-45.410,-217.285
1738232372.866,-49.805,-19.043,-27.344,-32.227,246.094
1738232372.870,-38.574,-8.789,-24.414,-24.414,85.449
1738232372.870,-22.949,-10.254,-28.320,-24.902,-44.434
1738232372.874,-35.645,-10.254,-30.273,-52.246,-76.172
1738232372.878,-15.137,-5.859,-31.250,-61.035,-327.637
1738232372.882,0.488,-7.324,-24.902,-33.203,-323.242
1738232372.886,-29.785,-6.836,-11.719,-14.160,-123.047
1738232372.890,-62.988,-15.625,-17.090,-20.508,237.793
1738232372.894,-60.547,-14.160,-26.367,-61.523,228.027
1738232372.897,-46.387,-8.789,-22.461,-82.520,-122.070
1738232372.901,-13.184,-10.742,-20.996,-54.688,-222.656
1738232372.905,-6.348,-7.324,-25.391,-14.160,224.609
1738232372.909,-30.762,-7.812,-17.578,-4.883,583.496
1738232372.913,-28.809,-8.789,-16.113,-45.898,15.137
1738232372.947,-50.293,-6.348,-22.461,-72.754,-228.027
1738232372.951,-74.707,-3.418,-19.531,-41.992,-94.238
1738232372.955,-65.918,-1.465,-13.184,-2.441,-162.598
1738232372.959,-54.688,-3.418,-14.648,1.465,-129.883
1738232372.963,-11.230,-9.277,-21.973,-18.066,-48.340
1738232372.967,-12.695,-17.578,-26.855,-47.852,-64.453
1738232372.971,-12.207,-14.160,-22.461,-64.453,-135.254
1738232372.974,-23.438,-17.090,-16.113,-30.762,-193.848
1738232372.978,-42.969,-22.949,-15.625,-10.742,3.906
1738232372.982,-45.898,-20.020,-20.508,-21.484,492.188
1738232372.986,-53.223,-20.996,-23.438,-58.105,24.414
1738232372.990,-43.457,-14.648,-20.020,-57.129,-467.773
1738232372.959,-0.488,-10.742,-19.531,-28.320,-188.477
1738232372.963,10.254,-17.578,-20.020,-9.766,-10.254
1738232372.967,-65.430,-15.625,-14.160,3.906,62.012
1738232372.971,-53.711,-13.184,-18.066,-28.809,-106.445
1738232372.975,-30.273,-16.113,-26.855,-55.176,-155.762
1738232372.979,-27.344,-13.184,-20.508,-23.438,87.402
1738232372.983,-16.113,-9.277,-17.090,7.324,115.234
1738232372.986,-13.184,-11.230,-18.555,7.324,208.496
1738232372.990,-30.273,-16.113,-21.484,-32.715,185.059
1738232372.994,-45.410,-21.973,-27.832,-70.312,-200.195
1738232372.998,-19.531,-20.508,-29.785,-41.992,-350.586
1738232373.002,-24.902,-19.043,-27.344,-7.324,-106.445
1738232373.007,-28.809,-20.020,-24.414,1.465,166.992
1738232373.011,-33.203,-17.090,-23.926,-22.949,-12.207
1738232373.015,-19.531,-18.066,-26.367,-70.312,-336.426
1738232373.019,-11.230,-21.973,-20.508,-42.969,-326.172
1738232373.023,-15.625,-22.461,-20.996,12.207,386.230
1738232373.027,-24.414,-20.996,-19.531,20.996,927.734
1738232373.031,0.488,-15.137,-13.184,0.977,345.215
1738232373.034,8.301,-14.160,-16.602,-29.297,-111.328
1738232373.038,-27.832,-18.555,-14.160,-15.137,148.926
1738232373.042,-19.531,-10.254,-10.254,0.000,-11.230
1738232373.046,13.184,-11.719,-18.066,4.395,-203.125
1738232373.050,4.395,-22.461,-25.879,-3.418,-80.078
1738232373.050,-23.438,-24.902,-26.367,-54.199,-258.301
1738232373.054,-35.156,-26.855,-19.531,-53.711,-432.617
1738232373.058,-37.598,-24.902,-16.113,-10.254,-269.531
1738232373.062,-44.434,-20.020,-20.508,-9.766,-50.293
1738232373.066,-30.762,-7.324,-24.414,-37.598,-15.137
1738232373.070,-8.301,-6.348,-35.156,-71.777,-105.957
1738232373.074,-11.230,-19.043,-37.598,-59.082,-193.359
1738232373.077,-3.418,-20.996,-32.227,-31.250,212.891
1738232373.081,-15.137,-24.414,-33.203,-24.902,738.281
1738232373.085,-50.781,-22.461,-24.414,-29.785,276.367
1738232373.089,-34.668,-8.789,-21.973,-48.828,-249.512
1738232373.093,-37.598,-8.789,-26.855,-50.293,-248.047
1738232373.097,-36.133,-16.602,-20.508,-29.297,-282.715
1738232373.101,-17.090,-15.625,-23.926,-25.391,-248.535
1738232373.105,-6.348,-17.090,-26.855,-21.973,-87.402
1738232373.109,3.418,-18.555,-22.949,-49.805,-106.445
1738232373.113,-28.809,-14.160,-22.461,-66.895,-309.570
1738232373.117,-55.176,-5.859,-24.414,-36.133,-205.078
1738232373.121,-48.828,-8.301,-23.438,-18.555,60.059
1738232373.124,-36.621,-16.602,-29.785,-23.438,423.340
1738232373.128,-30.762,-20.508,-38.574,-43.457,82.031
1738232373.132,-47.852,-23.438,-34.180,-80.078,-397.461
1738232373.136,-40.039,-23.926,-30.273,-61.523,-191.406
1738232373.140,-35.156,-17.578,-34.180,-20.996,-23.438
1738232373.139,-12.695,-11.719,-28.809,-18.066,-167.480
1738232373.143,-7.812,-20.020,-26.367,-44.922,-209.473
1738232373.147,-30.762,-23.926,-30.762,-85.938,-197.754
1738232373.151,-65.918,-27.344,-20.996,-74.707,-264.648
1738232373.155,-54.688,-26.855,-19.043,-30.762,-173.828
1738232373.159,-23.926,-19.531,-26.855,-30.762,80.566
1738232373.163,-0.488,-14.160,-28.320,-41.016,431.641
1738232373.166,-15.625,-14.648,-28.320,-62.988,412.109
1738232373.170,-39.551,-27.832,-25.391,-69.824,-181.641
1738232373.174,-24.902,-26.855,-20.508,-19.531,-217.285
1738232373.178,6.836,-22.949,-20.508,-5.859,153.320
1738232373.182,9.766,-38.574,-21.484,-20.508,67.871
1738232373.203,1.953,-31.738,-30.273,-68.359,-205.078
1738232373.207,-20.996,-19.531,-32.715,-87.402,-274.414
1738232373.211,-41.016,-22.461,-20.996,-21.484,-24.902
1738232373.215,-52.734,-20.508,-11.230,0.977,24.414
1738232373.219,-58.105,-19.043,-14.160,-18.066,-111.328
1738232373.223,-45.898,-21.484,-25.879,-37.109,-23.926
1738232373.227,-33.691,-29.785,-30.273,-66.895,294.434
1738232373.230,-40.527,-25.879,-18.555,-40.039,3.418
1738232373.234,-32.715,-15.625,-17.578,-7.324,-184.570
1738232373.238,-26.855,-17.578,-30.273,-5.859,29.297
1738232373.242,-17.578,-20.020,-27.344,-24.414,-28.320
1738232373.246,-17.578,-19.531,-16.113,-38.086,-297.852
1738232373.245,-10.254,-14.648,-14.648,-18.555,-346.680
1738232373.249,-2.930,-13.672,-17.090,-7.812,-100.586
1738232373.253,-20.508,-15.137,-20.508,-9.277,102.051
1738232373.257,-13.672,-14.648,-22.949,-13.184,0.000
1738232373.261,-0.977,-16.602,-19.531,-43.945,-264.648
1738232373.265,13.672,-11.719,-21.973,-34.668,-50.781
1738232373.269,-2.930,-19.043,-25.391,-21.973,115.234
1738232373.272,-38.574,-30.762,-23.438,-20.508,85.938
1738232373.276,-21.973,-14.648,-24.414,-19.531,-11.719
1738232373.280,12.207,-15.625,-27.832,-56.152,78.125
1738232373.284,-41.992,-30.762,-26.367,-44.434,486.328
1738232373.288,-57.129,-22.461,-18.066,3.418,163.574
1738232373.307,-14.648,-16.113,-18.555,5.859,-58.105
1738232373.311,-13.672,-26.855,-26.855,-17.090,195.312
1738232373.315,-4.883,-27.832,-35.156,-55.176,-166.504
1738232373.319,-15.625,-22.949,-37.598,-63.477,-456.543
1738232373.323,-5.371,-24.902,-27.344,-22.461,-208.984
1738232373.327,-6.348,-21.973,-26.855,-5.859,166.992
1738232373.331,-38.574,-22.949,-29.297,-30.273,231.445
1738232373.334,-39.551,-30.762,-31.738,-48.828,-26.367
1738232373.338,-23.438,-35.645,-36.133,-52.734,-172.363
1738232373.342,-5.859,-31.250,-33.203,-29.785,226.074
1738232373.346,-0.977,-20.020,-30.273,3.906,127.930
1738232373.350,-16.113,-27.832,-28.809,-9.277,-170.410
1738232373.335,4.883,-28.320,-36.133,-50.781,-48.340
1738232373.339,-16.602,-24.902,-37.109,-63.477,153.809
1738232373.343,-37.598,-32.227,-26.855,-20.508,-133.789
1738232373.347,-32.715,-35.156,-31.738,-12.207,-205.566
1738232373.382,-19.043,-32.715,-44.922,-49.805,54.688
1738232373.386,-21.484,-36.621,-41.992,-7.324,590.332
1738232373.390,-36.133,-39.551,-33.691,-0.488,281.250
1738232373.394,-48.828,-42.480,-39.062,-40.039,-68.359
1738232373.398,-37.109,-43.945,-39.551,-72.266,-287.109
1738232373.402,-37.109,-41.992,-31.250,-51.758,-279.785
1738232373.406,-23.438,-37.109,-23.438,-9.766,-43.945
1738232373.409,-9.766,-34.180,-24.902,-5.371,53.711
1738232373.413,-38.574,-35.156,-35.156,-11.719,378.418
1738232373.417,-70.312,-35.645,-35.156,-72.266,-14.648
1738232373.421,-73.242,-35.156,-30.762,-81.055,-382.324
1738232373.425,-38.574,-36.133,-30.762,-20.508,-147.949
1738232373.425,-31.250,-32.715,-30.762,-5.371,42.969
1738232373.429,-55.176,-31.738,-30.273,-15.137,-56.152
1738232373.433,-38.086,-33.203,-33.691,-51.270,-248.047
1738232373.437,-19.043,-34.180,-36.621,-59.570,-312.012
1738232373.441,-35.645,-30.762,-24.414,-8.789,-131.836
1738232373.445,-30.762,-20.020,-16.113,18.555,75.684
1738232373.449,-16.602,-25.391,-22.461,4.883,65.918
1738232373.452,-19.043,-31.250,-29.785,-23.926,303.223
1738232373.456,-23.438,-33.203,-25.879,-45.410,472.168
1738232373.460,-25.391,-33.691,-15.625,-36.133,-42.969
1738232373.464,-12.207,-27.832,-16.113,-2.441,-170.410
1738232373.468,-12.695,-24.902,-26.855,9.766,-0.488
1738232373.474,-23.438,-29.297,-39.062,-20.508,-120.605
1738232373.478,-12.207,-29.297,-35.156,-58.105,-358.398
1738232373.482,-36.621,-24.902,-24.902,-47.363,-356.445
1738232373.486,-41.992,-25.879,-26.855,-15.625,55.176
1738232373.490,-25.879,-25.879,-28.809,-2.930,-0.977
1738232373.494,-47.363,-40.039,-30.273,-33.691,-141.602
1738232373.498,-18.555,-37.598,-35.156,-51.270,-27.832
1738232373.501,-15.625,-29.297,-37.598,-31.738,312.500
1738232373.505,-30.762,-31.738,-26.855,-26.855,79.590
1738232373.509,-40.039,-25.391,-23.926,-34.180,-156.250
1738232373.513,-52.246,-23.926,-27.344,-32.715,-54.688
1738232373.517,-26.855,-22.461,-25.391,-51.758,-215.332
1738232373.515,-32.227,-22.949,-23.926,-37.109,-330.078
1738232373.519,-36.133,-23.926,-25.391,-12.207,-231.445
1738232373.523,-17.090,-28.320,-28.320,-6.836,-8.789
1738232373.527,-9.277,-28.809,-29.785,-11.230,184.082
1738232373.531,-32.227,-30.762,-35.645,-35.156,-87.891
1738232373.535,-31.250,-32.715,-36.621,-33.691,-318.359
1738232373.539,-28.320,-32.227,-27.832,-10.254,132.324
1738232373.542,-18.555,-31.250,-27.832,0.977,858.398
1738232373.546,7.324,-24.902,-31.250,-16.602,549.316
1738232373.550,-14.648,-28.320,-36.621,-58.594,-226.562
1738232373.554,-36.133,-30.762,-41.016,-55.176,-356.445
1738232373.558,-32.227,-24.902,-36.621,-14.160,-281.250
1738232373.590,-16.113,-21.973,-34.180,-12.207,-182.617
1738232373.594,6.348,-21.973,-39.062,-19.531,-84.473
1738232373.598,-27.832,-21.484,-41.016,-47.363,-95.703
1738232373.602,-52.246,-23.438,-34.180,-59.570,-327.148
1738232373.606,-16.113,-23.926,-30.273,-23.926,-341.797
1738232373.610,3.906,-20.996,-33.203,8.301,53.223
1738232373.614,-3.418,-18.555,-36.133,3.906,343.262
1738232373.617,-20.996,-20.996,-35.156,-44.434,107.422
1738232373.621,-21.484,-21.973,-34.180,-54.688,-207.520
1738232373.625,-29.785,-30.273,-29.785,-25.391,-191.406
1738232373.629,-39.551,-36.133,-26.367,-2.441,337.891
1738232373.633,-22.461,-32.227,-25.879,9.277,152.832
1738232373.619,-9.766,-22.949,-32.715,-16.602,-189.941
1738232373.623,-15.625,-25.879,-31.738,-56.641,-230.469
1738232373.627,-27.832,-28.320,-26.367,-45.898,-260.742
1738232373.631,-22.949,-18.066,-27.344,-10.254,-166.016
1738232373.635,-42.480,-20.020,-24.414,-20.508,-72.266
1738232373.639,-38.574,-22.461,-29.297,-35.645,335.938
1738232373.643,-12.695,-19.531,-31.738,-42.480,291.504
1738232373.646,-29.785,-20.508,-29.785,-52.246,-224.609
1738232373.650,-31.250,-20.996,-32.227,-21.973,-76.660
1738232373.654,-29.297,-21.484,-36.133,-6.836,219.238
1738232373.658,-29.297,-16.602,-35.156,-10.742,48.340
1738232373.662,-27.832,-18.066,-34.668,-33.203,-271.973
1738232373.666,9.277,-16.113,-32.715,-53.223,-340.332
1738232373.670,5.859,-8.301,-34.668,-2.930,246.094
1738232373.674,-6.348,-19.531,-33.203,11.230,499.023
1738232373.678,-15.137,-22.461,-28.320,-8.301,-11.230
1738232373.682,-46.875,-23.438,-34.180,-57.129,-216.797
1738232373.686,-41.016,-26.855,-39.062,-62.500,-137.695
1738232373.690,-17.090,-25.879,-31.250,-3.906,64.453
1738232373.693,-3.418,-35.156,-28.809,8.789,4.395
1738232373.697,-2.930,-38.574,-34.668,8.301,10.254
1738232373.701,-12.695,-36.133,-37.598,-16.602,372.559
1738232373.705,-47.363,-35.645,-30.762,-64.453,-36.133
1738232373.709,-60.547,-35.156,-26.855,-48.340,-341.797
1738232373.711,-32.227,-31.250,-33.203,0.488,-44.434
1738232373.715,-20.996,-28.809,-37.109,-2.441,105.469
1738232373.719,-16.602,-33.691,-33.203,-40.039,-121.094
1738232373.723,-19.043,-33.203,-30.273,-66.406,-378.418
1738232373.727,-14.160,-31.250,-28.320,-30.762,-288.086
1738232373.731,-8.789,-32.715,-25.879,0.000,77.148
1738232373.735,-15.625,-25.391,-23.438,8.301,247.559
1738232373.738,-16.602,-21.484,-26.855,-17.578,16.113
1738232373.742,-17.090,-21.484,-35.645,-54.688,27.832
1738232373.746,-25.391,-25.879,-28.320,-39.062,411.133
1738232373.750,-14.648,-26.855,-20.996,0.488,60.059
1738232373.754,-15.625,-27.344,-22.949,14.160,-177.246
1738232373.757,-31.250,-32.715,-25.391,-30.273,37.598
1738232373.761,-28.320,-28.809,-31.250,-68.848,-113.281
1738232373.765,-35.156,-27.344,-26.855,-24.902,-411.621
1738232373.769,-37.598,-31.250,-27.344,-8.789,-239.746
1738232373.773,-34.668,-28.809,-33.203,-20.020,65.430
1738232373.777,-22.461,-28.320,-29.785,-23.438,121.094
1738232373.781,13.184,-29.297,-28.320,-63.965,-126.465
1738232373.784,7.324,-28.809,-32.227,-71.289,-285.156
1738232373.788,-14.648,-26.367,-31.738,-21.484,307.617
1738232373.792,-18.555,-11.719,-23.438,11.719,286.621
1738232373.796,-9.766,-14.648,-20.996,-7.812,-190.918
1738232373.800,-6.836,-23.926,-28.320,-44.922,-252.441
1738232373.799,-31.738,-25.391,-27.832,-39.062,-305.664
1738232373.803,-41.504,-31.738,-23.438,-15.137,-275.391
1738232373.807,-20.020,-32.715,-25.391,-15.137,-63.965
1738232373.811,-20.020,-28.320,-31.250,-30.762,218.750
1738232373.815,-45.410,-31.250,-26.367,-42.969,38.086
1738232373.819,-37.109,-26.367,-25.391,-42.969,-233.887
1738232373.823,-28.320,-20.020,-24.414,-20.996,-193.359
1738232373.826,-37.109,-26.367,-19.531,7.324,321.289
1738232373.830,-34.180,-29.297,-18.066,9.766,788.574
1738232373.834,-20.996,-24.414,-21.973,-23.438,154.785
1738232373.838,-12.695,-21.484,-27.832,-52.734,-397.949
1738232373.842,-27.832,-30.273,-25.879,-26.367,-283.691
1738232373.846,-55.664,-34.180,-19.531,3.906,-208.984
1738232373.850,-43.457,-29.785,-21.484,4.395,-208.008
1738232373.854,-18.066,-34.668,-34.668,-18.555,-146.973
1738232373.858,-5.371,-35.156,-39.551,-64.941,-208.496
1738232373.862,-24.902,-32.227,-33.691,-60.059,-281.250
1738232373.866,-19.043,-37.109,-28.809,-15.137,-100.586
1738232373.870,-23.438,-40.039,-32.227,-1.953,119.629
1738232373.873,-41.504,-35.645,-36.133,-20.020,513.672
1738232373.877,-37.109,-28.809,-26.367,-56.152,140.137
1738232373.881,-42.480,-30.762,-25.391,-42.969,-441.406
1738232373.885,-21.484,-32.715,-26.855,-2.441,-307.617
1738232373.889,2.441,-26.855,-26.855,-9.277,-130.859
1738232373.889,8.301,-20.996,-27.344,-29.297,-148.926
1738232373.893,1.465,-24.414,-28.320,-60.059,-332.031
1738232373.897,-52.734,-30.762,-28.809,-44.434,-352.051
1738232373.901,-46.875,-24.902,-22.461,1.465,-201.172
1738232373.905,-6.348,-17.578,-30.762,-9.766,-115.234
1738232373.909,-11.719,-18.066,-44.922,-29.297,-0.488
1738232373.913,-28.809,-21.484,-41.016,-47.852,328.125
1738232373.916,-19.043,-24.902,-30.762,-35.645,563.477
1738232373.920,-7.812,-24.414,-20.508,15.137,87.891
1738232373.924,-21.484,-30.762,-20.996,7.812,-148.926
